256	10
Fp2_F4	F4_C4	C4_P4	P4_O2	Fp1_F3	F3_C3	C3_P3	P3_O1	Fp2_F8	F8_T4	T4_T6	T6_O2	Fp1_F7	F7_T3	T3_T5	T5_O1	Fz_Cz	Cz_Pz
-0.0248589614640455	-2.65799995036964	-1.04857023878616	0.04744714673946	-0.372682606129926	-0.0934342212122515	-0.536648490946841	-2.32477741984025	-0.882037467260426	-0.238533598196669	-1.27934414350557	-1.2840667979794	-1.47605638771727	-0.21856162703803	0.121286805263098	-1.75421153206784	3.30873175853612	-2.23257737502629
-0.36894111139084	-2.85041704871845	-1.5934813567353	0.187957227321999	0.0692371585555919	-0.657792156509277	-0.699229616981616	-2.96029113539491	-1.46302271958014	-1.70155113197467	-0.523632209201846	-0.93667623184587	-2.7929152153017	0.446033564305881	-1.32590486383703	-0.575289238984447	4.78267217822378	-4.23579469890237
-0.94916479657108	-2.65828968274267	-1.91524808291687	0.270510113958252	0.165927679682708	-0.88795611006218	-0.862120672195963	-3.30126718679862	-1.95705059201201	-2.63146798782406	0.0319436896011397	-0.695617561134676	-3.69710266088758	0.88140011261344	-2.23910953399904	0.169395789356005	5.71713624423068	-5.48631300941758
-1.47110455239366	-2.30810173348458	-2.00265018463167	0.287803268324433	0.0023769939549274	-0.801964925626808	-0.989911872383568	-3.33793397807932	-2.21985663149504	-2.88650576066233	0.249288360991946	-0.636979174133576	-3.99941603939454	1.00272678021113	-2.48830628454618	0.357561757995993	6.06275767417994	-5.87879611620525
-1.59614334066685	-2.20270309071143	-1.96209407743776	0.261197381706299	-0.153237457692232	-0.642396101523374	-1.0436076384701	-3.22675983947404	-2.21764107996778	-2.70279417400089	0.151711587226741	-0.731019463496585	-3.8326408738165	0.89410676062214	-2.29138205413995	0.163915126520339	6.04541523607034	-5.74249960348234
-1.29525194069265	-2.49525243019015	-1.90662416803025	0.22276480759121	-0.133303830312232	-0.622095147593171	-1.01698583518406	-3.12758186848673	-2.06211878723869	-2.44237641799821	-0.101718446421313	-0.868150082806644	-3.51269286434008	0.723294788467563	-1.99178504877276	-0.11878356064016	5.92240250517416	-5.49101202742062
-0.928554691121025	-2.9010681053817	-1.88376480824714	0.199801950872597	-0.0294507320899435	-0.722870183390856	-0.959214928646576	-3.08800099491239	-1.9374014371539	-2.31992479085984	-0.311433876420455	-0.944825552599379	-3.31392675509659	0.624199390275164	-1.82313731326391	-0.286672164718293	5.83537852109322	-5.34658662435332
-0.87788612699578	-3.02056861818784	-1.88988064471898	0.20367459214152	-0.0449076082892784	-0.769814641534461	-0.937347939244796	-3.07167301951163	-1.9509744606015	-2.33076556454269	-0.360342176150964	-0.942578599634572	-3.32163312781524	0.631319082831738	-1.82360207234168	-0.309827095073029	5.82674537812862	-5.32345599323648
-1.12154252637423	-2.81618638755073	-1.91675641447439	0.223029493906213	-0.228437455996877	-0.675725451565386	-0.966824087325461	-3.05432795558647	-2.04837502402304	-2.37022666669261	-0.283205256527975	-0.929648890429498	-3.44418921909535	0.693867176108546	-1.89911866059685	-0.27587425076225	5.8948932946865	-5.35833796232393
-1.27937699501881	-2.65002075684012	-1.96380584220677	0.22975266128237	-0.420340189215411	-0.549045387689964	-0.995501612925604	-3.05608984928797	-2.09619278524785	-2.37335370210346	-0.213251794770893	-0.980652653851428	-3.54601458136849	0.740289843141006	-1.94036030897708	-0.27489199583923	6.00054475955008	-5.40338621153516
-1.09996552495702	-2.81930298353471	-2.01667263580505	0.201534599133773	-0.468271338245213	-0.540922570242661	-0.970426534227128	-3.08842251322572	-2.04994853535821	-2.34554008197398	-0.244854478734825	-1.09406345229559	-3.57412491170973	0.736335242736468	-1.90328136251419	-0.326971928430675	6.07031730641626	-5.43198061124426
-0.784956699317427	-3.17627931770933	-2.04253329593597	0.144546509728452	-0.426460755995057	-0.641591287598047	-0.908171936886387	-3.11147176664452	-2.00691151116884	-2.30679889190849	-0.349316243670851	-1.19619615969403	-3.57080360582329	0.694267144524102	-1.81599363579127	-0.395165654062901	6.05399433379904	-5.42428381362403
-0.727522496611247	-3.32709865259559	-2.02394230149024	0.0914105274751672	-0.477518988928929	-0.695098937345489	-0.876936754734649	-3.07322208368628	-2.07447649004387	-2.25411953036674	-0.43081203504563	-1.22774487098099	-3.58576194403256	0.638571125390744	-1.73143034416895	-0.444155605965185	5.98406150599966	-5.3791113090984
-0.993818382369716	-3.15502179936213	-1.98951667407609	0.0726833697917418	-0.679928695022797	-0.610789241215419	-0.908748253860065	-2.98079302352173	-2.21861770282282	-2.18599126965642	-0.449505399886367	-1.21155911687229	-3.60242325596025	0.57383975984358	-1.67721221572945	-0.474463505905029	5.94645134184587	-5.3242560157536
-1.22700462501919	-2.97732867649863	-1.99172131227742	0.0905703324527675	-0.876657155764667	-0.488417998291674	-0.953944468555003	-2.9033266783067	-2.29150496393245	-2.13248152265982	-0.461793175771599	-1.21970462220565	-3.56341749465945	0.491231955701318	-1.64338715729439	-0.50677360884646	5.98013266365545	-5.29063225011632
-1.11328761117862	-3.11834557394631	-2.04874795076777	0.122116405582237	-0.893352347949225	-0.485588160084429	-0.941393131411874	-2.89320418193182	-2.21284747795486	-2.1294304789474	-0.53462231776699	-1.28136445887256	-3.45513599223813	0.399447441473259	-1.60773791387514	-0.550111360967319	6.03203758364083	-5.27641846884172
-0.801323516873707	-3.46244219051111	-2.12224220580409	0.145397677043131	-0.7698740111777	-0.600467216047489	-0.871752952788759	-2.92314149038217	-2.07679876797168	-2.16427359111582	-0.650435134712306	-1.34910274558062	-3.33953837915083	0.333685312826158	-1.56493217119285	-0.59445043715677	6.03500114471972	-5.25517794565882
-0.707511965484388	-3.59779332970054	-2.16412443425881	0.157371446639978	-0.715137463754945	-0.664734017390086	-0.822064474816055	-2.9226567783501	-2.04238719187548	-2.17418861796963	-0.728210351840538	-1.36727212435516	-3.29028445651556	0.323358740502916	-1.52783904590055	-0.629827976723471	6.01064872529141	-5.22355717590783
-0.949921616853672	-3.38010029012599	-2.17584472846913	0.16548248329536	-0.839057171836635	-0.567635948375321	-0.849052629663427	-2.86988103794124	-2.14097296455063	-2.11479184329554	-0.731435948320078	-1.3531833992256	-3.31347425355452	0.354542789453968	-1.5031609040115	-0.663534424076434	6.05009273319714	-5.21723316919922
-1.17029936408276	-3.16115466945841	-2.20173762065015	0.168678230423714	-1.02008141081072	-0.415895462878691	-0.91213463561323	-2.81818900438396	-2.24644963319812	-2.01862531576725	-0.717179015026305	-1.38225946301467	-3.35331006144428	0.375567516142851	-1.47502974216437	-0.71352823063809	6.17754270147221	-5.25582852438448
-1.01053176387484	-3.34415382902631	-2.2620993626005	0.15568926077769	-1.09140986893537	-0.4039906908507	-0.920032146633566	-2.81818515354782	-2.24810304649444	-1.96372521726157	-0.757982191072045	-1.49128524313383	-3.37168477657918	0.344764928838679	-1.42140808178067	-0.785289934908031	6.27275869770471	-5.28439981655349
-0.626433103653703	-3.8275191643475	-2.31612319491453	0.124250747110111	-1.0903327251502	-0.550289479702608	-0.849699326378274	-2.83623514079791	-2.19953285552709	-1.98411365577079	-0.840254517621555	-1.6219236901223	-3.39157792645724	0.268317413563094	-1.34463835683608	-0.858657806803873	6.18899816287226	-5.21517943543569
-0.528364790163191	-4.08594771460046	-2.31289560191545	0.0937803490154397	-1.20764049005702	-0.646819729585502	-0.788536175001874	-2.78584747448849	-2.24048617757995	-2.03357534424683	-0.879977113752869	-1.67938912531738	-3.44053823762924	0.187632774617371	-1.27414278036085	-0.901795630307508	5.97033556356398	-5.06077120384447
-0.905963323969729	-3.82664791907188	-2.27073294346286	0.087095254246536	-1.47550081028557	-0.507380423097612	-0.839348021303478	-2.64534111539369	-2.38635019616531	-2.04730496230983	-0.845203430068935	-1.63739034694349	-3.47011174326258	0.135355176423428	-1.23209545808518	-0.900718349744434	5.90668033882223	-5.00234200170607
-1.308327809471	-3.39361833600166	-2.27342004498229	0.096672640857602	-1.62922493699776	-0.214681159326532	-0.993181852286655	-2.51109249585466	-2.47114607876367	-2.01409732729312	-0.828630538648035	-1.5648196081174	-3.38013086608011	0.110871773488525	-1.20412363960094	-0.874797716901374	6.27866530172322	-5.24591210762201
-1.14878909602555	-3.38884572110844	-2.36696847080549	0.0818126638058135	-1.41068757770355	-0.0624258468229835	-1.11356786664588	-2.49929936743803	-2.35027845649018	-1.96083437318408	-0.959804985062416	-1.55187281261602	-3.15793579956426	0.0919515558797557	-1.15752036837862	-0.862476051214275	6.96295257659606	-5.73161597019485
-0.458809858481035	-3.9674822989114	-2.47449918677533	0.0177455470877215	-0.998815884534324	-0.260653381959198	-1.05096445646631	-2.59606747804909	-2.12707930156048	-1.88883534401505	-1.23336017476948	-1.63377097994721	-2.97728902690344	0.0528393379321757	-1.09061174504984	-0.891439771692121	7.30081602446964	-5.99070969764778
0.0412750085138809	-4.65932475625531	-2.44830537444853	-0.0510463120977787	-0.985074502636441	-0.728878236052803	-0.780512632142168	-2.63734464113825	-2.09749985798965	-1.78889009611428	-1.44254495911092	-1.78846652427734	-3.09253132518249	-0.030218807513838	-1.05039344130941	-0.958666442704168	6.53771025008305	-5.43815184665914
-0.311970434649492	-4.87327933753708	-2.2326928751561	-0.0326434841333528	-1.76001000618013	-1.13816650197817	-0.461882956607802	-2.47069518213496	-2.42179814859968	-1.7409111557254	-1.32459603009992	-1.96328080024691	-3.5548066025977	-0.160830650277311	-1.08343711759808	-1.03168028120277	4.70871864481129	-4.05560796472779
-1.38463586221327	-4.40592152230284	-1.98434478895635	0.103473939479414	-2.8762583177559	-1.06870725491881	-0.39948740439781	-2.15377750433737	-2.86787482089847	-1.9172466983006	-0.831839071103885	-2.05446764687646	-3.99554119542414	-0.274390047078805	-1.16095145867914	-1.06734778503571	3.31246322386706	-2.95184026332134
-2.2897035413727	-3.39628756894249	-2.02393810913489	0.228861282393396	-3.10959569332072	-0.149919301628998	-0.912416953869998	-1.99055606250958	-2.93460463180178	-2.35629309503992	-0.308013499836899	-1.882156713554	-3.74889031664774	-0.211751791612704	-1.16182117229067	-1.04002473561769	4.92061720928926	-4.0975948058421
-2.11608885856095	-1.97782584974595	-2.6302049319474	0.089262442886608	-1.3409411636476	1.75261516358214	-2.13205579110548	-2.33951295055021	-2.29001330889922	-2.70002165645695	-0.361784151387784	-1.28303808378835	-2.34348849440174	0.207935700952486	-0.958422053859028	-0.965919899282363	11.4696341887274	-9.01353903951776
-0.646319438274702	-0.174026240543498	-3.80724024088142	-0.528222424391392	2.41280510374184	4.3018668397195	-3.83801677802165	-3.31961758889326	-1.12730369029001	-2.31584369236284	-1.40484623418498	-0.307814730405731	-0.0162308782968617	1.02960385033899	-0.553748277718733	-0.902587122674705	22.294563802563	-17.2353117021692
1.44672590522219	1.94180909648623	-5.18850922392426	-1.63250396877254	6.74694557564795	6.69640875690924	-5.5223264787214	-4.6432698670946	-0.0599755958213015	-0.917422998716374	-3.14808110226282	0.693001502672272	2.28253763220553	2.0534055947645	-0.147735993921676	-0.910449251231382	33.7932850057734	-26.0190210672524
3.00330663550595	4.16421046834519	-6.17666451254093	-3.01082294718062	9.75221259408422	8.12017310440916	-6.70535301637487	-5.73998930991308	0.426121201076404	0.886473899375528	-4.59021620181874	1.25765074236998	3.57839056998063	2.89385371159372	-0.0479651232505849	-0.997235791067307	41.5150734409114	-31.9097017661472
3.18423029513167	6.18092583495181	-6.26870693042314	-4.34587469515918	10.4019082804431	8.27258343603082	-7.22712308539665	-6.11182206654444	0.449745889513821	1.88835365956077	-4.71533005605999	1.12780500837436	3.72453222993672	3.17577824041549	-0.472839964026478	-1.09192394676488	43.0716482777461	-32.9849257150845
2.15946233691643	7.54859866221368	-5.36107707418775	-5.34623508364562	9.28862172790017	7.4206895606909	-7.23954769562773	-5.6494643619188	0.575467716157112	1.35994800928565	-3.31856564427083	0.383898757027543	3.56182546415938	2.72195956104758	-1.38829337140899	-1.0751924277464	39.3259547243734	-29.8524951505237
0.986753839782503	7.79621116356188	-3.81350560799149	-5.8211038966396	8.05705191507891	5.99310762345209	-6.97440519439226	-4.66198727300474	1.11431305626039	-0.16576855142674	-1.12308186109984	-0.677107148102239	4.12863970584932	1.61877885384589	-2.48038477112898	-0.853266722444243	33.0919390294655	-24.7488586725193
0.623225656871062	6.84608780318081	-2.22683704473558	-5.71482523407974	8.00374991825338	4.2575479671669	-6.57443006625423	-3.625106796184	1.67924913141008	-1.2924794968086	0.863143217867738	-1.72226167429832	5.63370029741837	0.150382317633762	-3.28690950545707	-0.435412091642056	26.9044496729041	-19.8104232289355
1.03723754457426	5.33575965385539	-1.11163789888086	-5.10886645667911	9.05398836438603	2.36101547601875	-6.10401308464443	-2.87189398596946	1.57633796040911	-0.977449768392393	2.03034259353309	-2.47673794572914	7.19861870787966	-1.33977001328069	-3.46408621204615	0.044334282193928	21.7708587234029	-15.9706583537516
1.41140052749112	4.25117139924164	-0.683905616099452	-4.18492228683651	10.0058684967137	0.469040296342208	-5.61763209313674	-2.44642879495819	0.642824654786906	0.571608320097393	2.36476307441581	-2.78545202853502	7.64632294203385	-2.58012969121279	-3.06175775618151	0.406412405264142	17.4232594122944	-13.0301823928224
1.18566348852276	4.08238981568637	-0.879686727471476	-3.17567215342347	9.78567384735805	-1.2713639078271	-5.16549314636334	-2.16903994697988	-0.412777081418799	2.05579474893657	2.23422855060995	-2.66455179782728	6.59720570038696	-3.41704671989498	-2.56530457889903	0.564922439526393	13.3001813621919	-10.4408685628556
0.690193332364319	4.43633658430369	-1.49164756799682	-2.31983781675186	8.48872658859845	-2.80996870188686	-4.75908117936367	-1.79975344129009	-0.588020689159904	2.10813619762793	2.04068840264157	-2.24575938218559	4.8553670669816	-3.76044566331663	-2.57838669123752	0.603388548553155	9.27777929629048	-7.99734814640433
0.653153138166216	4.58301016025674	-2.28546468648038	-1.79302390482474	7.1676323327358	-4.06581355730036	-4.37121356589198	-1.16951575102812	0.497582090706088	0.34318558121951	1.94808863832891	-1.63118160611323	3.76217989281324	-3.54566585823529	-3.35690029126161	0.701475710115265	5.71296578036325	-5.94146480534773
1.26205423154216	4.28285766973037	-3.06261801047795	-1.62029101150878	6.62990603848151	-4.73264328112557	-3.97418727067495	-0.244520801234319	2.26185922199639	-2.37294213603857	1.81344653126439	-0.840360740893859	4.1421492624029	-2.83606619568739	-4.5915127478064	0.963984361449585	2.98878619011704	-4.57391390477921
1.94874989837503	3.92733103867895	-3.72049117436478	-1.6585596318334	6.60429920239409	-4.41466145487673	-3.5593504549636	0.85742620773249	3.65304234193021	-4.55639370128381	1.3112736596894	0.0891078275820687	5.76173873813497	-1.93649121010523	-5.64428774541719	1.30675371258372	1.07113362763792	-3.85760600944001
2.10647687510909	3.93003388296181	-4.30008544102549	-1.70976128561181	6.18683247233421	-3.09766044815839	-3.1138576553499	1.91465570694915	3.93510958396615	-5.0734137575465	0.150236096462417	1.01473210563353	7.6561272612427	-1.23489195871103	-6.05286926403757	1.5216040321913	-0.523514117706503	-3.40069690170351
1.81256554494474	4.20786710213757	-4.92782529683516	-1.68252086073203	4.91241878353882	-1.38527468980375	-2.59621898743162	2.73036015060261	3.12224702523481	-3.81465773202751	-1.63864915175161	1.74114634516167	8.89389357725501	-0.839440911015458	-5.87515815241912	1.48199073799874	-2.36250808236759	-2.76811711010672
1.69782812691756	4.35787554723426	-5.63408480302511	-1.6462793219528	3.12088486036676	-0.0864213867172202	-1.95180534013344	3.26623554899892	1.85812270814867	-1.78847290405536	-3.40747687874025	2.11316662094347	9.10353046785681	-0.472362906674202	-5.58067798349723	1.29840409974806	-4.69870164578679	-1.75671601320722
2.17769724689159	4.20651759007866	-6.21247635958485	-1.72989200473269	1.36099375304133	0.448175191528638	-1.14825409227874	3.65148408149741	0.925731424124982	-0.547498386756795	-3.98121594310714	2.04482937553481	8.46536421707754	0.191853457179013	-5.60293097362351	1.25811222808176	-7.37045109210545	-0.394217383409943
2.98310515292769	4.0153768779965	-6.31798766614033	-1.98061410011706	-0.20832782866645	0.498353697177849	-0.187860755783669	4.04484320422448	0.720876848851957	-1.09468763799154	-2.49620336227192	1.56989441324216	7.36901444665687	1.15127555739282	-5.96069379936909	1.58741210720788	-9.99532949697578	1.21538813234312
3.49679772488267	4.13664175776842	-5.78393451017001	-2.3272046545406	-1.72191664736295	0.522295474947595	0.897643133146869	4.48910859079576	0.997995742761801	-2.9496049531921	0.503327411304085	0.970582114251511	6.10457847973848	2.09520939811845	-6.25889690711301	2.24623957573211	-12.2177326777328	2.94713825379965
3.42728108620106	4.58877723552557	-4.87767432905492	-2.6659115076839	-3.19663245936707	0.654476690854826	2.03322269983215	4.90566301545846	1.04408492339393	-4.31191928516106	2.96753343362302	0.772773410337857	4.78557491359481	2.71785892190927	-6.03868557786583	2.93198168410388	-13.8413809522258	4.58443894069121
3.03979730246684	5.06376385162737	-4.20823908371291	-2.95280127188029	-4.4829224088418	0.680084814624965	3.08057163092695	5.21426223635337	0.20683069890442	-3.47793288848109	2.82273950389246	1.39088348141227	3.45393760920217	2.93534418434471	-5.18314972996967	3.28586420446761	-14.8554841610474	5.81873917285947
2.81864614238645	5.28889386482258	-4.30317746122312	-3.18730141088053	-5.5582317977692	0.405233422590455	3.87775594754076	5.42891991217706	-1.53634892408266	-0.349591199155868	-0.14033126738126	2.64333252297328	2.21422849549227	2.85704507907561	-4.05723381033399	3.13963771530658	-15.4075426632929	6.42253446801657
3.09162663619968	5.24889632044169	-5.21570883045352	-3.32602344219832	-6.57978368830345	-0.0647974000651588	4.35072259151348	5.62357165499554	-3.39708955474031	3.38703530877062	-3.8884710140844	3.69731594131286	1.3025226577841	2.66362590754314	-3.26119491474083	2.62475950257783	-15.7200308740375	6.43578000617135
3.97029752086721	5.06841471503625	-6.52876202070786	-3.27916223591692	-7.50102004410028	-0.448871061707818	4.59767299243198	5.82162431519699	-4.20881529613161	5.5321270065696	-5.77303353875649	3.68050980488758	1.04126372343785	2.52664999794877	-3.17751102027306	2.07900349575599	-15.9515871376152	6.14084343407926
5.42270713748682	4.84577956076656	-7.7332995320902	-3.0245232705275	-7.79273949947332	-0.650477175765759	4.83992708305082	5.96181152613633	-3.23186479875937	4.90390246848566	-4.61782555164896	2.45645177486989	1.61592678336883	2.56840891608453	-3.65981624382046	1.83400247339118	-16.0890214406189	5.83065756615365
7.23713956882114	4.68756090653541	-8.59620207333754	-2.67901817547378	-6.77572560285864	-0.953165628310326	5.26476941818793	6.00553677752349	-0.745018499558951	2.01516592087987	-1.39532683557069	0.774659638127555	2.76523630613777	2.84536407142725	-4.10843740152775	2.03925198361106	-15.9969491613768	5.61355413098735
8.96788373725927	4.78145276975741	-9.20526452643001	-2.40175417163863	-4.30989666979152	-1.82440969267959	5.90029312687388	6.05697050038458	2.04627848074374	-1.3766708336306	1.85487719688093	-0.382167037692615	3.74693359297837	3.34442585931353	-3.88904583591075	2.62064364354436	-15.6347625314198	5.45037410013018
10.0780683903115	5.23901658736398	-9.74544541598822	-2.23211184691603	-1.18066740029689	-3.45115220409723	6.62436467076633	6.31172300146772	3.73688449297378	-3.47171488588344	3.66110322114688	-0.586745116091767	3.80235399776883	3.95193658095676	-2.80446638667044	3.35444387095754	-15.2485178193387	5.34626919071151
10.2592823425363	5.8161798745692	-10.272504347143	-2.06601625896737	1.15260515195742	-5.39021993286899	7.27650476364733	6.84391759371503	3.54721897020959	-3.58796887012134	3.90465243131373	-0.126960923011893	2.77697170300304	4.41781692047219	-1.29093409098532	3.97895303917045	-15.2988401444068	5.44953175183924
9.63814570254567	5.94675305104078	-10.6541116750268	-1.81197191509524	1.35541432037955	-6.73446375269681	7.76381703056424	7.46497425957177	1.67362558891758	-2.41285749815138	3.34053200760556	0.517515062508381	1.29580320167447	4.43338692523123	-0.166276785904195	4.28682851206593	-16.1186547122261	5.93515317974155
8.62351486414786	5.24806517622932	-10.6573903053975	-1.5443193021886	-0.827266958273193	-6.80909153801328	8.08818317122733	7.84900479631462	-0.987540920802429	-1.17595776732616	2.58988266930906	1.24348644904682	0.290046820658368	3.86661744582029	-0.0374386077308371	4.18160380779776	-17.5936363358221	6.81272969857908
7.53096851736649	3.99432600340406	-10.0747961877709	-1.44552255849637	-4.20797153003793	-5.78774333764684	8.30320474509636	7.83848219848896	-3.42064813488714	-0.5703208903425	1.67807020549681	2.31787459169256	0.249433262330123	2.98286120634994	-0.797308649498726	3.71098625205296	-19.1854880683829	7.88638971022807
6.417136972327	2.89335322612014	-8.79952075697391	-1.55766799093917	-6.97636545720539	-4.53860646415269	8.45358216377974	7.6310549402743	-4.94120398199983	-0.413356945800076	0.463774884447716	3.84408749136284	0.790072339478137	2.38397234928849	-1.69344359435384	3.0890640836626	-20.3119394316074	8.91680631749661
5.30950091354324	2.25569984237124	-6.82090740280707	-1.61199875371401	-8.1482873280274	-3.84472528453564	8.55028306520542	7.64700063634836	-5.33972260007068	-0.175582747111767	-0.720545349794977	5.3681452938674	0.878516079727818	2.61382921816545	-1.9620036005279	2.67392938705239	-20.7573129190076	9.81912819666048
4.45554584712548	1.48927184904211	-4.17855783032319	-1.16426593933882	-8.18570039502797	-3.85863088227205	8.60917966828648	8.19379210691184	-4.81262175670446	0.328480871470383	-1.08047015781478	6.16660496707082	-0.398655715084531	3.73835806242216	-1.42398321043121	2.84292135646841	-20.7599566344767	10.7204028482211
4.13202545763063	-0.355557283391324	-0.954124698002396	0.055481405808079	-8.13485971730961	-4.24817864686143	8.71299985658565	9.24175805613397	-3.78832875314998	0.743461103113754	-0.0428764948925293	5.96556902450966	-2.99831264094742	5.2734386493908	-0.490124905109425	3.78671844074266	-20.7357522843651	11.856391685309
4.19721500468836	-3.45535450250028	2.65760757028263	1.89835625657864	-8.31411040066684	-4.65391569285412	8.9952324152342	10.4909707552562	-2.67800535875552	0.508012294565602	2.1770438243958	5.29077356639856	-5.6782988004796	6.50397146339015	0.334073241534008	5.35843116810635	-20.9239311900449	13.4005723636297
4.06717052387498	-6.74831929849416	6.26065707971981	3.85940507416822	-8.01726855372216	-4.9455241898148	9.512592205901	11.61179961387	-1.66203606241438	-0.652003323239044	4.719437159898	5.03351560259823	-6.78369384918355	6.93607856797901	0.895304238603334	7.11391011447204	-21.2573678525363	15.3201732371337
3.32189654409976	-8.73560581461907	9.29207002630897	5.36162937458567	-6.43999471910789	-5.19182938132287	10.1301916573538	12.4183496573787	-0.708801161310217	-2.43417468799257	6.7092370746638	5.67372890260689	-5.62841678131688	6.60028022160653	1.40338423953993	8.54146953016568	-21.4976640345975	17.332264207754
2.27676417554636	-8.77859474140522	11.2535455882612	6.03973738492641	-3.71267851677341	-5.49906549787814	10.563080339102	12.8753831172784	0.184592642321506	-4.07104048246257	7.76428942115063	6.91361082393014	-3.21074274851123	6.01270711761347	2.09318140750553	9.33157366087308	-21.4505021338304	19.0091768395889
1.82678598053542	-7.62392058942299	12.006950818007	5.87551838471876	-0.993115038250129	-5.8250226176044	10.5480391285106	13.0258456766785	0.826956174861568	-4.80847326118226	8.07266242526935	7.99418925251846	-1.44259859989878	5.77163026191808	2.91741081485372	9.50930466827383	-21.0872319370985	20.0008031234333
2.72247083382241	-6.73884714782627	11.8670508696328	5.15298338647845	0.338046666060727	-5.87883473074044	9.99631474465366	12.9539465735854	0.950227609902585	-4.36970712315401	8.08474720703569	8.33839024596971	-1.57489122376066	6.07283202172053	3.55097218380326	9.36056026767034	-20.5398986785763	20.2354361192917
4.98877123775854	-7.15227799482241	11.3932256544943	4.27583509246208	-0.387719392380542	-5.27537568138544	9.03920006826951	12.7972291989506	0.467408911748372	-2.96130511144929	8.03288805317721	7.96656213408002	-3.28794070846074	6.5660105782835	3.6662923809372	9.22897193863174	-20.0195866834033	19.9536226537673
7.85640788334998	-8.74204455540808	11.0899738913752	3.55345968098927	-2.70530093985728	-3.91992788692315	7.97905686241059	12.7389481475311	-0.375507152586774	-0.958577596179723	7.70228655594576	7.38959509080789	-5.12993527546692	6.67207579746075	3.22346540413954	9.32717025303013	-19.7027352004511	19.5543046060224
10.0527856816838	-10.362649713975	11.2759661868908	3.08956211270426	-5.3391840788864	-2.23137567252533	7.16980512554216	12.9310320558749	-1.04639989997098	1.17415019731889	6.81202377537642	7.11589019227677	-5.72615168804311	6.04961757178484	2.54337400317469	9.66343753915715	-19.6251848264606	19.3720133366982
10.3084314434439	-10.6341868108398	12.1249904165777	2.83382728671668	-7.07230146406863	-0.86158951820244	6.84727169835463	13.3854270712536	-0.9796061146461	2.76224423516951	5.65096362269652	7.19946059039201	-4.7096636674933	4.81905055899722	2.09599159135979	10.0934293006089	-19.6489038453298	19.534584660148
8.06906550410397	-8.91540485584614	13.6816169488518	2.72522552496097	-7.49936274621071	-0.152185062394	6.98937751756845	13.9288079887813	0.0364086795531668	3.18841025909534	5.11522887870239	7.22045530244889	-2.74737209823825	3.43568095917061	2.14436267749545	10.4339661555213	-19.5515062521341	19.9677210169492
4.05098921976156	-5.82589409777468	15.7591401607851	2.79104450605249	-7.00374797250734	0.0917350424612122	7.32470887161918	14.2743583265443	1.6218200250026	2.47568001913713	5.95039708062126	6.72738266180779	-0.808009923603088	2.40178453118286	2.53774835836389	10.5555312984475	-19.1879096505287	20.4978442807404
-0.0324753066378887	-2.85450164121888	17.8733607553378	3.1196536631706	-6.06404054724817	0.32480873401797	7.51354606456871	14.1676507722279	3.0167298405112	1.36899772914576	8.00421076477607	5.71609913397767	0.625001800726142	2.06169413909627	2.84548358131473	10.4097854987737	-18.5789435342171	20.9484414090911
-2.62642695280794	-1.29997202588508	19.4090668307951	3.74360624323374	-4.74197467448665	0.841857758788814	7.36178707152899	13.5110406574149	3.61260256268981	0.694665110773542	10.2760139643039	4.64299245534192	1.7354851859254	2.53639535864431	2.68774095131318	10.013089313779	-17.8372680514803	21.1702778483013
-3.40267003936424	-1.42613294911644	19.9648239089181	4.55678803343223	-2.93923404422083	1.61074372912528	6.88976908999841	12.3979630573896	3.31130172725916	0.766958190487421	11.6330050849664	3.98154394894357	2.9027900724651	3.67417560047282	1.95301296316508	9.42926319267747	-17.0198110161914	21.0386674392982
-3.24151731929271	-2.50006323071073	19.5778368454417	5.35816634340343	-0.976612369583391	2.40512751862936	6.22863377392149	11.0516221678593	2.44734578402162	1.43225751086514	11.4697804475669	3.84503889418791	4.17051370833328	4.98594526578808	0.793063604017331	8.75924850924932	-16.0803285352971	20.4787658163983
-3.22559072682466	-3.55034587632942	18.6163893403705	5.98339449834677	0.401700794577767	3.02761796483949	5.48042054264467	9.71197865902511	1.51034788965103	2.39258652340678	9.90043898795993	4.02047383235763	5.23437524696478	5.76556431278308	-0.492866979473366	8.11464537744769	-14.968577516958	19.5161771312875
-3.67624159274419	-4.11432890837205	17.4525764148773	6.40353324048643	0.692988742675133	3.42641291066259	4.67066091615505	8.53314876338032	0.99058715421716	3.22509825792763	7.63689285746335	4.21296088246324	5.83748432205939	5.52008440141888	-1.60330090882585	7.5689435149302	-13.746518317586	18.2936309368016
-4.08575459766648	-4.38590376304835	16.2161833428097	6.72495595677623	0.136745201896957	3.65985786138074	3.79297718423209	7.54023413200805	1.31441464715724	3.23011927903215	5.72527465556366	4.19967235495322	5.99781512482845	4.4121107336718	-2.39349490353024	7.1133834213321	-12.5791622329082	17.0181358461175
-3.86128672556746	-4.77947395195288	14.8059062023496	7.1142915108557	-0.532837489874442	3.78560767203811	2.86573047570412	6.65694782198519	2.64556025242342	1.68749247348318	5.03484164972738	3.91154265789685	5.8656061783661	3.21504759312216	-2.95953290646275	6.65432761168696	-11.604297650364	15.8663473095487
-3.06092363289631	-5.41895724151569	13.0799150109053	7.6915691455679	-0.724382175566407	3.78521765215306	1.9441315804404	5.77486661038528	4.61003008306929	-1.44150602726977	5.58282530782679	3.54025391629097	5.56392039963689	2.69087280298102	-3.54223253391553	6.06727299564522	-10.8198420659191	14.9097279080696
-2.38536876413709	-6.02475072825429	11.02453493315	8.43122493646672	-0.339502061903441	3.58912881738535	1.08856581138449	4.82209812634048	6.31943933586347	-5.1023254908883	6.30961083363221	3.51891569648374	5.25623327991141	2.92523996747098	-4.29888124458257	5.27769868741856	-10.1057034193219	14.1033582253131
-2.46644725533669	-6.20861710447068	8.77820387876804	9.14011310484044	0.356459102393877	3.17113269084687	0.32377702438749	3.80665614854567	6.87440646880999	-7.65050688842566	5.81883926069301	4.20051378059883	5.2173066422909	3.25987920427176	-5.13079397565436	4.31163309235357	-9.34317518345981	13.3315658254292
-3.20783014857449	-5.81446074936732	6.5429782878083	9.56945859351897	1.05851882174077	2.60583041577383	-0.376585659422754	2.8226796583509	5.98993574907608	-7.94469919764809	3.60408409701437	5.44082533282713	5.67484889364658	2.87739582005864	-5.73131168896417	3.28951020886621	-8.49302081430388	12.4607262990799
-3.85666644029896	-5.0041579667605	4.48688686901242	9.59771834385924	1.64798075230162	2.00977040437403	-1.06934956461675	2.00505304120312	4.18376448759399	-6.06929692668368	0.559385213825382	6.54992802896924	6.5977498684561	1.46804002860422	-5.85560070251947	2.38326543596243	-7.56587824731491	11.3563471062619
-3.71457476842808	-4.10163021226994	2.69398503639705	9.31020011489352	2.24153229725761	1.4128366806071	-1.80095228549276	1.43931017262175	2.36394140544716	-3.14763434537618	-1.79384918229678	6.76552229071941	7.73505795254043	-0.593791227368215	-5.60093207189338	1.75239220903313	-6.55648910983853	9.87841801130515
-2.77792416819768	-3.39388203037034	1.15688131323317	8.87756014524559	3.08882315283837	0.708991277011922	-2.57350255286928	1.08488822350399	1.17991392172692	-0.570320117524839	-2.58257017866416	5.83561163228191	8.87928409596403	-2.63779669501861	-5.39137764153506	1.45909033847012	-5.43336541433372	7.91145161021051
-1.7477834391234	-3.01381854818032	-0.197117440400979	8.36022134032441	4.34099329278609	-0.206830182422126	-3.33572956484714	0.788081030218626	0.65023678838591	0.717235430995982	-2.12629954702068	4.16032923817539	10.039724052897	-4.28889689866739	-5.57016859100804	1.40585600998654	-4.16896028430959	5.44571105528645
-1.47767437423209	-2.88865868095523	-1.44693356812383	7.67069664535239	5.78591646265491	-1.19214434512048	-3.9976047188663	0.397210839837865	0.321748770504237	0.508087340824288	-1.3809458307818	2.40853973941902	11.33089020726	-5.77500432487529	-5.94058051454921	1.37807286822019	-2.72422965733262	2.63885028770963
-2.32993441413313	-2.74609960882203	-2.61257128178134	6.74443380453362	6.78506019306891	-1.75515042717447	-4.46138531158994	-0.111177481144705	-0.186256101768898	-0.807131679230889	-0.985164248382315	1.03438052711115	12.696818824311	-7.64807428747778	-5.79207613669482	1.20067857064798	-0.981012528495167	-0.226018058129246
-3.87338006003689	-2.24746101068851	-3.62288644524469	5.69664011523172	6.59969854911166	-1.31713149735292	-4.66538754265492	-0.615550345546493	-0.720104958121134	-2.59388329667736	-0.844348318132789	0.111249170132093	13.7145352238676	-10.0889827466862	-4.51380086926344	0.889877553342977	1.25186030215006	-2.86496576951636
-5.11000722166443	-1.23736656539878	-4.32356490236388	4.73533227326111	4.97911009165796	0.255398414184896	-4.61849850292529	-0.962859538007947	-0.690089452870787	-4.20176754664712	-0.543416699485549	-0.500332719216272	13.6405510612437	-12.4303590913496	-2.21759724939993	0.660555742196035	4.05811301552686	-5.07721314237619
-5.10536667461241	0.0807980775569046	-4.51541740144116	3.91008929463598	2.5763143321812	2.29680312479066	-4.38335267104683	-1.10495807097437	0.284863533560025	-4.98608993280236	-0.0119616234314834	-0.916708683233679	11.7829898912069	-13.4513869401993	0.287938478241538	0.76526528355895	7.17363909408597	-6.70888682951667
-3.60629438585396	1.23901260615239	-4.03388037288057	3.01563961811703	0.73980843585732	3.6256132341002	-4.00571363243786	-1.13464664524117	1.85365835532551	-4.4519741640224	0.349388554615807	-1.13659528242396	8.0868452721078	-12.3038745249585	2.16742926324455	1.27466137981875	9.95895073051753	-7.57435108283926
-1.20898514311831	1.84752919418606	-2.86919973634459	1.80447155320893	0.591016602733399	3.44999500335367	-3.46303364671623	-1.20192602447892	3.17842034729431	-2.65762008436675	0.144415978489036	-1.09140037551767	3.44838760526034	-9.25605905385483	3.21880473718869	1.96491864430815	11.7185178207005	-7.48574091130934
1.01654539161692	1.94781049552523	-1.25323021387985	0.295397868225227	1.95207032319848	2.22614551948183	-2.70617860427149	-1.39859350314671	3.7316330603061	-0.385716856772359	-0.597388712810228	-0.742003951262515	-0.732535397102964	-5.5249227513841	3.9090190916808	2.42188279015503	12.1563287721551	-6.41148732872387
2.13820491227344	2.08123327656359	0.394753080758567	-1.14408575459013	3.14483556857676	1.56929030822076	-1.76308204187155	-1.71205505084447	3.75717127249616	1.33985195567768	-1.45539600197257	-0.171521713215723	-3.542812857526	-2.34414647722415	4.80927348866698	2.31667462832737	11.5649223907411	-4.59564427202549
1.79800593555915	2.94052959335304	1.66789235524728	-2.02838937540131	2.18419875747947	2.98173603925359	-0.784455860645212	-2.07432295690463	3.92049984885521	1.98321862332108	-1.86818535222906	0.342505386797619	-5.1918009304369	-0.179368949540396	6.02730107735626	1.65102478004264	10.544535583177	-2.46977445000969
0.273330859610662	4.80452887729749	2.37268942946626	-2.10518930739752	-1.48005787736286	6.40048311480556	0.0342973311050043	-2.4469494863401	4.61001931935397	1.72239651379877	-1.35619974622945	0.369143770046978	-6.66907039295592	1.23784692221409	7.17598257941298	0.763013971850065	9.48453786725791	-0.399645918112655
-1.76000870611413	7.20359717309116	2.57563245959121	-1.55311174630944	-6.30654218724039	10.0500457045217	0.580539972095326	-2.85460725834228	5.63482593173699	1.03137038312669	0.222900049219537	-0.42298718582424	-8.73667350639348	2.29354505956648	7.84332694017036	0.0692377360793039	8.2834749918087	1.51307988675483
-3.58178269844866	9.13963644553504	2.48615268202736	-0.878430158667799	-9.77799434750695	11.8844121697138	0.876374150997443	-3.33024176783294	6.48361568106153	0.160418713233728	2.45903667366044	-1.93749479950258	-11.1771387977779	3.0211790852507	8.05587870445633	-0.247368788095089	6.56118867266079	3.40167194352763
-4.76286628102577	9.7402029575942	2.2990972492036	-0.583412846530934	-10.2649206279254	11.1996555315359	1.02258999939009	-3.82607835684025	6.71115378167774	-0.913164347105294	4.4848786934323	-3.58984705074917	-13.0058138853538	3.20030983763795	8.27002291941143	-0.333272326998582	4.12926133449612	5.41452373099509
-5.34346876998463	8.83489639308616	2.11262141706225	-0.835798600612116	-8.04155545112915	8.89737133270961	1.10689661484264	-4.19101808842756	6.09585448277567	-2.05401153703444	5.37239088321659	-4.64598339138399	-13.4621222192508	2.80278468885445	8.90045604481741	-0.46942410781548	1.24267787080864	7.51085755131822
-5.6894114631503	6.98353520646151	1.93873045562766	-1.36915547120076	-4.78880473472981	6.4149423924252	1.15379877037034	-4.26058253080179	4.67079464078603	-2.65572356317753	4.52982300557813	-4.68119535741823	-12.7556334419358	2.18445287472396	9.8847276786741	-0.794193215515507	-1.5926279998673	9.45747796502702
-6.07101621800272	4.97933470755174	1.75238263105188	-1.69461876844869	-2.18568600528792	4.53942991840714	1.13432582327602	-3.99677410699385	2.81510635537255	-2.00381874024292	1.96972822122345	-3.81493348616198	-11.7731198304305	1.69705934181243	10.7856407535717	-1.21828463679726	-4.03165260378039	11.0132127758272
-6.35451180276224	3.31451071910569	1.53135589267136	-1.47236003436765	-0.774447573577667	3.07683171222164	1.01056821780082	-3.55459556191302	1.24134155407357	-0.0895818336237902	-1.50403081493921	-2.62873413281544	-11.1406622583574	1.14124801443509	11.3307301932967	-1.57295915601609	-6.12106122844794	12.1052345812477
-6.16718266867361	2.03606588365197	1.28080568838464	-0.738652751884272	0.0638435121920153	1.38592671741105	0.777612693595285	-3.20229213181257	0.624377867751713	2.03252267575295	-4.39627687370528	-1.84958752026308	-10.7297777142253	-0.181111324095456	11.722464988982	-1.78648516037797	-8.15964956991269	12.8295311732311
-5.38895434304644	0.976700117845272	1.04602591943525	0.193352607313471	1.14456956661041	-0.858044081613248	0.469525122183586	-3.14671762798882	1.06845805221034	2.96399139634109	-5.25431116044363	-1.95101398849246	-10.0856852491391	-2.71371595569006	12.3182162639369	-1.9094820809479	-10.3355249048171	13.2994418086302
-4.41874366885591	0.0416541085862052	0.895179950808371	1.01868326869189	2.492541896976	-3.31728983397962	0.124799497817636	-3.39864885247656	1.9676874919561	2.23727709751267	-3.7586345915624	-2.90955634059719	-9.18144287274753	-6.01827139847818	13.119464666791	-2.0183476881904	-12.4654202645023	13.5045244197332
-3.87978683873537	-0.722006300940585	0.868480031277805	1.61582432140084	3.29094020365009	-5.27377772973299	-0.247835946735599	-3.77867515415389	2.49746820110489	0.82366041162956	-1.14236254967015	-4.29625485197156	-8.60168906456697	-9.02909381658038	13.7575313884201	-2.13609713513902	-14.0728375230478	13.3104162250166
-4.05386835318771	-1.28413754885489	0.940583368323	2.00144416276636	2.77733080158478	-6.22708798137701	-0.656253742750855	-4.05218293883947	2.30190775804873	0.207933906627792	0.692138814343069	-5.59795885187073	-8.96467142381465	-10.9029819107121	13.9511303325056	-2.24167086018737	-14.7528295486957	12.5922285008834
-4.63429706657834	-1.79220404253628	1.03718363715139	2.20636271243447	1.1246593793359	-6.28703534814968	-1.07136750671184	-4.09219152377754	1.71352286654194	0.915474219614817	0.650845533606477	-6.46279738117717	-10.2365487667492	-11.5546059577217	13.7938677925819	-2.32864806817312	-14.5138066674843	11.3829386463243
-4.99043704061019	-2.53598484363917	1.08159072619243	2.23265485155131	-0.597691138614873	-6.09027310582653	-1.38663519322529	-3.96145780573993	1.32584419858718	2.0082622062222	-0.822253492825219	-6.72402922036155	-11.6624872717894	-11.4827938993297	13.5467953659964	-2.43757143897692	-13.8061978556767	9.92229434634182
-4.59239449916854	-3.75979064415219	1.03049913780852	2.09724728335743	-1.2998208987859	-6.38307707012688	-1.4348192515897	-3.86336433552697	1.38881863619747	2.06803204766331	-2.3217600122372	-6.35952939563602	-12.3590384888754	-11.2763652942423	13.2764604665031	-2.62213824004303	-13.2321580066469	8.58389118606205
-3.24719969296173	-5.4964767666161	0.899533193669089	1.87220689458621	-0.701580569804916	-7.59492821451274	-1.06980313333349	-3.98978030979235	1.61445919558413	0.694949212076645	-2.7299117442145	-5.55143303661162	-11.9635108551151	-11.2852947611188	12.7664310985531	-2.87371771032738	-13.1940536981571	7.73591488573408
-1.1719947946989	-7.50303985139188	0.777137123900721	1.65852818768518	0.599697666330538	-9.62370750527742	-0.276427986794651	-4.36455251030886	1.48793812321585	-0.96469189981087	-2.04220375542645	-4.72041180431068	-10.7563782874036	-11.5558334210302	11.7288627692996	-3.08164139741858	-13.7414777113972	7.60381228014548
0.970334021565113	-9.28226936687834	0.78708343013725	1.50433999115761	1.72912614106822	-11.8917758015516	0.774394788579123	-4.80596819224573	0.684425295437515	-1.24116686227797	-1.1512174534646	-4.31255290552425	-9.26994433139252	-11.9187555588813	10.0956666354989	-3.10118980981642	-14.6618125075635	8.18087791883429
2.20705649188626	-10.2333003121209	0.990282846750825	1.34839091658557	2.1669016188387	-13.6526241112613	1.79153494308244	-5.06161140940188	-0.749070793745249	0.417486886733069	-0.921886636616311	-4.43409951506355	-7.87975003836772	-12.1539486764395	8.18362078505052	-2.9057210293672	-15.6621958717739	9.20676916504268
1.77614648152819	-9.99552851557685	1.29856912187764	1.07810036256873	1.97019180557296	-14.4399228974076	2.51039185151687	-5.02048625636241	-2.40525907313261	2.78012274319895	-1.5034685761765	-4.71410764526793	-6.73114249533045	-12.1325009978996	6.56051949555824	-2.67670149933191	-16.48102366895	10.214818315377
-0.194790895643115	-8.80919305001574	1.48693726975803	0.680417670624568	1.6152279593486	-14.3875897185416	2.79778213212286	-4.81260968282183	-3.60650748233451	3.8213163535904	-2.44697901298129	-4.60445886530789	-5.87878575940366	-11.8118821680101	5.59812400266424	-2.69464538540893	-16.9019792664029	10.6517423096585
-2.54602359090925	-7.47147765777736	1.31249314422839	0.323761752122136	1.64133891959559	-14.1084792696189	2.64945654153081	-4.69781348293617	-3.67871888306346	2.45734524012106	-3.26869494220016	-3.89117776893099	-5.37821711646378	-11.1216075252552	5.08205650333781	-3.09772915325833	-16.7463312979967	10.0842810179187
-3.8451046245293	-6.7484025461464	0.664981814064531	0.239817984928342	2.22260386440376	-14.1251812941666	2.14132791146182	-4.85357091443996	-2.43374274149755	-0.528222888017597	-3.78544474262262	-2.94129700126205	-5.29154657626755	-9.94191806296686	4.37539012137695	-3.75674591503994	-15.895350338055	8.45709807463335
-3.43865446534793	-6.7521816432599	-0.344062873640533	0.49303098494871	2.93551492571522	-14.3035898911575	1.41862525723881	-5.26550009171827	-0.469901117598652	-3.14321412314742	-4.02203898867803	-2.40671376957113	-5.62811967196889	-8.27061926733456	3.09195533523543	-4.40816619595697	-14.3147885213172	6.23452767390572
-1.8095487255657	-6.92028356395456	-1.40717026197435	0.880560628803412	3.06647742452561	-13.8451723558799	0.701065406021012	-5.8037496354502	1.14346971955376	-3.84531548834684	-3.90778049253817	-2.64681566303322	-6.16362710887349	-6.39434386339096	1.5727961479631	-4.8962043365334	-12.0245942196882	4.20109054425738
-0.0228172422430528	-6.57026611344836	-2.16234645583352	1.08284933365406	2.32487347173649	-11.9434086503327	0.211913588470293	-6.38052072377808	1.63180502781514	-2.76159930589963	-3.09117494748666	-3.4516112539498	-6.30878742961205	-4.79461328032378	0.58887433385668	-5.27261593782537	-9.00802381694797	2.9066342915173
1.0589007886601	-5.41781235260199	-2.39041524327996	0.911583300213135	1.2471219815239	-8.57150345042326	0.0245658104795781	-7.02031514486487	1.02655462087895	-1.34177668690544	-1.22646244451229	-4.29605899809592	-5.39427398637799	-3.79314442792195	0.557963420623803	-5.69067580955927	-5.13916481303066	2.12036657250056
1.12034171287176	-3.62244687699192	-2.15080677788152	0.409100558806674	0.810919280336628	-4.67992120587871	-0.0422946230496155	-7.77629669386128	-0.0403716259079978	-0.774201239060131	1.34381412800299	-4.77305264783079	-3.29197322718187	-3.27278029171471	1.1098734008682	-6.23271312432673	-0.238403181742768	0.79563249370937
0.26466669441897	-1.49394522107835	-1.75305593329375	-0.258008622092302	1.64451677142522	-1.60350890500184	-0.35036835296247	-8.58905365743593	-0.966129278688612	-0.835240780289094	3.34436957550254	-4.78334260014508	-0.717952153172141	-2.77538760353855	1.4191624848073	-6.8242368719262	5.72540174709462	-2.30217778355296
-1.2265935039141	0.742588448226265	-1.57083300730207	-0.959974421551292	3.55574419395855	-0.162716203238158	-1.21357538432585	-9.25486622197131	-1.57750438489349	-0.38847387259358	3.38365343569126	-4.43248766429314	1.19951061786176	-1.90174807493546	0.915422999034689	-7.28859915734576	12.4235017488662	-7.71455977666561
-2.99744391378482	2.91975217670752	-1.81348388762341	-1.67478972477176	5.61841925368198	-0.104645794591134	-2.68126876074092	-9.56549720035658	-2.02642204489825	1.16605683810487	1.12757164730021	-3.83317179149907	1.69735086789789	-0.632436060968946	-0.303949778718157	-7.49395752997972	19.1438665571797	-14.8115664672534
-4.62477341196099	4.78132662404545	-2.39435564500281	-2.45499322684813	6.64695730620666	-0.245342152635357	-4.48814800225662	-9.49311226953849	-2.44429888763369	3.1679908056513	-2.4123345700151	-3.00415300925986	0.796420952976589	0.73473774581909	-1.64471617177014	-7.46608764496673	25.0313736252824	-22.0798621768734
-5.66900201589565	5.9910693259492	-2.98005779476184	-3.3434471915663	5.91773177835596	0.693985217499133	-6.20339656655706	-9.23057916435537	-2.7351885652065	4.32760235798351	-5.64010555803571	-1.95374591247682	-0.861053664192988	1.92509942330469	-2.52890051288709	-7.35740398095525	29.4610351468481	-27.973801691771
-5.80269522576898	6.35506270543286	-3.19843043053608	-4.29366829130695	3.80819455384545	3.05761723831179	-7.47875646606377	-9.04280127763383	-2.65098845031569	3.89281119896969	-7.31433232870135	-0.867221663561666	-2.43115245193263	2.88032294093949	-2.79717497373747	-7.30774146643979	32.2938253576755	-31.734095488111
-4.96262110405778	6.02213451024197	-2.876384950634	-5.1626415158712	1.68340033341456	5.9128210356922	-8.22555840893721	-9.07462704172825	-2.05919230311206	2.2704750555413	-7.01881127483573	-0.171984539312255	-3.21480382645158	3.57351249918171	-2.71593775719797	-7.34673499667826	33.8402769022238	-33.6440190717508
-3.47337577075512	5.44297470476217	-2.15229649819148	-5.81333297599543	0.865598812310085	7.80268797227798	-8.5988842081601	-9.28197986591689	-1.19794017226528	0.682395083937143	-5.14444431064784	-0.336041142568523	-2.87557766603041	3.742774271154	-2.66054290146137	-7.41923099269645	34.5962803666194	-34.6466754092882
-2.04530463967479	5.1388808676064	-1.38874152734836	-6.24422923496884	1.64589769429496	7.89584922592564	-8.82047287485979	-9.51205716739672	-0.668861519102438	0.193535818577762	-2.5267222464496	-1.53734658874189	-1.54247529673585	3.01772715804829	-2.79584087630013	-7.47019410655192	35.0004480666675	-35.6981989446132
-1.50475599275497	5.48027204671498	-0.942877867558661	-6.60773696822924	3.343200091232	6.47580684507876	-9.00160041584829	-9.63589908371288	-1.04560361328137	0.91888718171427	0.0516102593255221	-3.49999261088174	0.26804322398558	1.43186997347115	-3.02288192652655	-7.49552383364312	35.3803345004597	-37.3092482013621
-2.30483852699096	6.5804477042362	-0.947491865360546	-7.10572191363208	5.1127744387051	4.53651681247906	-9.10614663546254	-9.62894556034458	-2.35007600526709	2.09198625419874	2.11353633107186	-5.63305118301	1.90574403222823	-0.269493024544004	-3.18404451815784	-7.53800743357124	36.0079675141064	-39.4565614949943
-4.16814347686082	8.27017489772117	-1.25187440160218	-7.88052326420331	6.44379972099608	3.071196680134	-9.04614660567338	-9.55758964245681	-3.9114690384161	2.87346600912973	3.34662205028627	-7.3389852671667	2.84967962078341	-1.01461910064377	-3.27315384142011	-7.65064652510128	37.0835432756747	-41.760368632928
-6.18833090041347	10.1142868966024	-1.56433078213769	-8.96798198922451	7.02807526859797	2.60370614575936	-8.77735328145984	-9.50165339266112	-4.80643564436722	3.01259192390719	3.454148122421	-8.26666117831741	2.83071097447928	-0.229728250124754	-3.40207788682744	-7.84613009663244	38.6086675776901	-43.7346404259843
-7.32451718541176	11.5266167829034	-1.69111225111414	-10.272966829868	6.57521324514257	3.06966841397239	-8.28964391679421	-9.48364532942988	-4.46416603041879	2.7302257034671	2.35041934169518	-8.37845849937775	1.83782245849102	1.65547535177152	-3.5593838617063	-8.06232153496757	40.2920194079631	-44.9762797413754
-6.93815084208714	12.0391270857696	-1.68086874958172	-11.559175206102	4.97391661902813	3.94678294521147	-7.53920422876906	-9.45442541353617	-2.93110640121134	2.23802199401436	0.410717745259072	-7.85670105116679	0.108378475234683	3.48286592090946	-3.48366021443566	-8.18051425903727	41.6309198389333	-45.2542971065799
-5.10602698318715	11.6109569772604	-1.7492187376419	-12.5290623509845	2.54858760022801	4.55935844035327	-6.45881771989967	-9.32640816339264	-0.787788415079116	1.67838925072759	-1.67611292781752	-6.98783900344615	-1.88471096423108	4.1823281639515	-2.88301294449535	-8.09188409716067	42.1403202693705	-44.5279940684058
-2.63081341260374	10.73799200755	-2.05381692591142	-13.0060756967008	0.00891241380052943	4.46788216949021	-5.07681653079771	-9.01494208384539	1.03229406084238	1.42992909625548	-3.2941996659776	-6.12073751980593	-3.52860134050068	3.47873532407578	-1.80262803782739	-7.76246997628659	41.5554193922399	-42.9246212053448
-0.715939800852331	10.2264085199365	-2.53642474470716	-13.0704405693784	-1.96233678672347	3.74431088068137	-3.6063157907585	-8.46728803491324	1.53871769260416	2.05042454184998	-4.05387596663307	-5.63166286379909	-4.30764184884121	1.98164692845642	-0.711648792440144	-7.25398601803779	39.8687331436323	-40.6653494065409
-0.327178166219958	10.714004276081	-2.97915994963729	-12.9959118001559	-3.15360654592225	2.90058027284125	-2.36912976740059	-7.68794086203139	0.226897651583061	3.70091177724243	-3.73669322111825	-5.77936184857243	-4.09276334649321	0.656744090627385	-0.18283125668006	-6.69124638907878	37.2237302227156	-37.9379744211631
-1.53251780842258	12.2162208041943	-3.20186254020541	-13.0358432849692	-3.87741384847276	2.44249814171413	-1.59407479008295	-6.7608210570457	-2.39720736048398	5.78511942922903	-2.44765539572775	-6.49425950330883	-3.23893253314478	0.128155277416435	-0.487976880088712	-6.19105741714528	33.8058042371975	-34.7960661937991
-3.36062746446752	14.0566905836291	-3.19582631702466	-13.2523410423613	-4.53945293705551	2.37278039596477	-1.26121841126236	-5.82839425166525	-4.89152327405787	7.36306938055471	-0.914600867140016	-7.3090494804248	-2.32115821963893	0.31353422444248	-1.45955101215032	-5.78911019571057	29.8453485400158	-31.1974831988236
-4.45423056489253	15.3263397113251	-3.08386227518651	-13.5010151821703	-5.11925188739946	2.11075358062503	-1.12339092256605	-4.99630413229845	-5.75733257128959	7.89878495365048	-0.264309146550926	-7.58991154753223	-1.67605987954211	0.59538555144126	-2.63341311526044	-5.41410591728104	25.7070241163069	-27.1885520878767
-4.06290470329985	15.527183521899	-2.98878275975918	-13.5308414050165	-5.08480930961812	0.984229848635473	-0.890875002487718	-4.23099972320478	-4.53200679623525	7.53111691184798	-1.06910957048144	-6.98534589205976	-1.16836759132197	0.363687293505289	-3.4816911845287	-4.93608270329795	21.910651131755	-23.0819684159571
-2.53265095329893	14.8317046531671	-2.95548984960587	-13.1216508140991	-3.90366377264635	-1.08560066757057	-0.445326574729797	-3.38296569788916	-2.16264518852733	6.76937083561964	-2.617288143855	-5.76752446777954	-0.444359458897715	-0.487185022749145	-3.61960736774574	-4.26640486237672	18.957825614162	-19.4413111338937
-0.938514709818665	13.782233190061	-2.97642361569074	-12.2132155481758	-1.77055990497543	-3.32585580947022	0.0660480447905851	-2.36003484490061	-0.306661701554863	6.11496704782263	-3.43267473322243	-4.72155129732809	0.546712526370252	-1.51749939211501	-2.97195937547817	-3.44765627223202	17.0413612078321	-16.8349080979875
-0.271123810642325	12.7942561944117	-3.06463393405508	-10.9711539622863	0.183158860898682	-4.59623933267526	0.321079572522293	-1.29163361986678	-0.132914452893385	5.82329644710353	-2.65564774596555	-4.54738976142757	1.35007242340174	-2.20646838652207	-1.85581871314062	-2.67141984172582	15.8937146401639	-15.5309005490703
-0.802150275076063	11.8953486973847	-3.28557510071593	-9.72408091961316	0.644759755565532	-4.28971630141502	0.0402769197006316	-0.500526023165662	-1.5546415153063	5.70468621544343	-0.851212808202342	-5.21528949051828	1.46733766275738	-2.48598659678183	-0.884500490541471	-2.20205622358131	14.9560482727576	-15.3689986335964
-1.97750614816528	10.8192993159579	-3.69555764379311	-8.78178107653734	-0.721418398809129	-2.8529565035941	-0.820527238146309	-0.280577827544508	-3.42226057602664	5.15961039598832	0.523454622126287	-5.89634999514057	1.03144929863284	-2.7844398447176	-0.680874743602495	-2.24161467720692	13.7602120259468	-15.8912729590857
-2.85443852851941	9.30713204618662	-4.239078426127	-8.26700327594587	-2.91930543229366	-1.38921984139117	-2.04550045941348	-0.674112201171518	-4.48853684155424	3.72068377988686	0.3538248406529	-5.63935996385746	0.840449688107929	-3.49207025265463	-1.56281194625952	-2.81370542223163	12.2094522487507	-16.6016868615155
-2.78532889517271	7.37151872127498	-4.73371451563826	-8.10309816143996	-4.49425836970199	-0.724335320659798	-3.30420243735908	-1.44957697168765	-4.3698763438007	1.69034612369836	-1.32827146925436	-4.2428211620367	1.58816508769406	-4.4128691078539	-3.40678656461963	-3.74088251336556	10.5345701651224	-17.1561325597435
-1.83552014194205	5.32884704685179	-4.98529521601358	-8.14005963740077	-4.71290082774907	-0.873649630259768	-4.3216274145621	-2.28807255417511	-3.68813173905737	0.0638217902111964	-3.47507350842042	-2.53264449160635	3.09617562266366	-4.82870969421669	-5.73806953178672	-4.72564682211199	8.99669716588645	-17.3869368997801
-0.610330822855717	3.59991244279372	-4.91516703049859	-8.26795200696312	-3.94885908467371	-1.31581732954814	-4.94665078934539	-2.98974531566399	-3.30388372971527	-0.315666813122836	-4.82787716998699	-1.74610970501755	4.32791781698786	-4.11797808442842	-7.94188533062807	-5.46912691983806	7.62494694137435	-17.2131384473012
0.296732598142217	2.47620772810573	-4.5720354852547	-8.43407922263967	-3.16188539920077	-1.58408439464812	-5.13996741035209	-3.51897043223561	-3.428099022942	0.515102576846264	-4.8218643189337	-2.49831361688645	4.12518987257491	-2.2875820112265	-9.48497460567441	-5.75754089075615	6.21798169121425	-16.5609961391274
0.713938941363258	2.01320251946347	-4.04489704111601	-8.6180945488137	-3.09534382058025	-1.54546498121382	-4.96490906401611	-3.90062694695927	-3.47376881451463	1.7291292690632	-3.95783037104872	-4.23338021282287	2.07109288699986	0.0232666970450417	-10.0908901349314	-5.50981426049883	4.57107640022	-15.3709763731333
0.871863241688054	2.03492471328144	-3.38244327531645	-8.82567958437678	-3.74543607249684	-1.28399727533382	-4.58278782631689	-4.12401298265318	-2.74382674480974	2.41573734886507	-3.26982549507319	-5.70342001387646	-1.04555836135461	1.93674045479536	-9.81842087694953	-4.80899537187861	2.68910240607703	-13.6500408774182
1.08073932660349	2.20616818965516	-2.57878595060527	-9.0818781548667	-4.37431429092813	-0.886200514721402	-4.19444275329239	-4.15447000435438	-1.26173987628542	2.25918189929288	-3.31503364771906	-6.05616496462284	-3.50143647721575	2.76790895048892	-8.98411347176875	-3.89178656335856	0.79596494600823	-11.4792530526013
1.41525950968693	2.20566597485815	-1.61644389848158	-9.39372544136249	-4.1108653761112	-0.342129411212246	-3.93277401233442	-4.00090791686161	0.0853912294858681	1.72733308971678	-3.7225463665056	-5.47942180806774	-3.70345370288749	2.29471295445667	-7.93522964805913	-3.04270631855896	-0.837217610068294	-8.96992417608073
1.66045879995831	1.94782813253978	-0.533092457454585	-9.70794967914607	-2.72686544011453	0.413974703427897	-3.79033351477793	-3.73558043813643	0.283526785523091	1.66273127879764	-3.77253474066715	-4.80647852777875	-1.43681751378921	0.841647989194934	-6.81600960112694	-2.42762556238105	-2.06914813024234	-6.25025081941708
1.56516950584051	1.63670977356163	0.536646038375855	-9.90908682969151	-0.825335774730296	1.35906355452312	-3.64047819974037	-3.44833580127541	-0.890499845047778	2.55746554344712	-3.26077950993901	-4.57674770034774	1.81938015298094	-0.82579562083452	-5.5385521969809	-2.01011855486173	-2.92158759453371	-3.51811739852416
1.15810259220674	1.53978107498487	1.39174129690248	-9.86361386003558	0.810116648782831	2.24056003277735	-3.32168942568536	-3.20496749912009	-2.66427131799545	4.06817999426687	-2.63324884489246	-4.54464872724598	3.99642342562107	-1.80093880178785	-4.03029249763111	-1.64117236789285	-3.47907936865446	-1.08012287004831
0.768979403968909	1.70362322495641	1.8533288565331	-9.48003919403841	1.95050804049366	2.67094345479392	-2.72056429809115	-3.05523629772351	-3.89835043045141	5.17655302439743	-2.3959098957566	-4.0364004066469	4.05150769324542	-1.44090977791728	-2.53604377330747	-1.22890324096583	-3.79082498159136	0.716554516989544
0.691496769844515	1.93700637565381	1.83378515832614	-8.75498393339328	2.84759521719641	2.5555804185123	-1.82852362499433	-3.05139316455849	-3.87858738666263	4.90801988964014	-2.65160358724502	-2.67052454513108	2.62447516427	0.309813411604227	-1.59871189058123	-0.812317837528167	-3.87492999714527	1.6401457113537
0.842589834934552	2.06757788005547	1.34358366433139	-7.77846799028636	3.50954844389768	2.45497375259292	-0.772546803328858	-3.2183543894202	-2.66709627770013	3.08411398124856	-3.18374940503018	-0.757984909265776	1.22357257034975	2.84410290233191	-1.61547865430339	-0.478575813001002	-3.78933511943686	1.69893700446539
0.799912955292344	2.13650415866247	0.476234457786163	-6.67012397402458	3.37264991705053	3.25952463171815	0.206283507161154	-3.48934221293529	-0.963870164454169	0.504206751497469	-3.66867393976821	0.87086495070531	0.814841717576074	5.13714691244615	-2.37788688838128	-0.224985896984056	-3.66375822160132	1.13194440343084
0.20242593827804	2.28528129793127	-0.592654441448429	-5.47105477731471	1.89887967015368	5.25949665513477	0.848192083312144	-3.68866868832768	0.286052733550334	-1.60582275717209	-3.69932603589969	1.44309407727767	1.10763536075435	6.25302493100488	-3.13227134350324	0.0895107737057064	-3.64358315855038	0.264298691415561
-0.862881011515757	2.49579053333405	-1.63180211306134	-4.10459176346351	-0.624059010240946	7.62485154620686	0.98821719775172	-3.61024520494286	0.363912170869953	-2.38418432084763	-2.92099281674311	0.837780612369879	1.063516020809	5.85921295008015	-3.19132454802475	0.647360107625238	-3.79600363440044	-0.677682471044617
-1.84250663591281	2.52731782935045	-2.45052110512899	-2.48757588717227	-3.03568567521278	9.00722479609692	0.596930957156068	-3.13467199062405	-0.816689918432508	-1.74055204380309	-1.42927733420826	-0.266766502018951	0.0682221570641839	4.38399649966567	-2.52611088142722	1.5076903138541	-4.0683286773193	-1.66537023343309
-2.10678227620674	2.13772883708332	-3.01485115378507	-0.699458878739533	-3.97947363958859	8.63954791006282	-0.256296929096699	-2.28211200789979	-2.61050373205304	-0.25153137647047	0.0710809728475328	-0.892409335526615	-1.31599977244764	2.66864034901289	-1.75164168902389	2.52066644770239	-4.34070572043846	-2.80448980824264
-1.46734016370359	1.35081651961778	-3.46801337968311	0.973716357680233	-2.64652691520078	6.79682032651461	-1.44237862840958	-1.17420919706037	-4.04082211642191	1.20105676543331	0.740730838336878	-0.51178615294748	-1.7363999158831	1.39138649006472	-1.52955762612308	3.40827663957657	-4.53010922564009	-4.14874126808023
-0.390682911293194	0.499861633746647	-4.00381620737988	2.18310926200259	0.769715197201062	4.38083606044225	-2.78401469679924	0.0319867329356276	-4.48065625609948	1.83693472027153	0.300786429797627	0.63140688363955	-0.278220194438179	0.714336283577197	-1.99513545012709	3.95754265658389	-4.65316601121061	-5.542735883249
0.359024713116626	-0.0150283668821749	-4.68551161067163	2.7435607791694	5.02409066815026	2.28481363824915	-4.08151331392001	1.18743191583377	-4.01714013612292	1.31728865083281	-0.779994588301121	1.88189158889973	2.6190899140524	0.355782703089442	-2.73630912813075	4.17625942114271	-4.78686755649152	-6.64248165771524
0.407291901477536	-0.0714759220681975	-5.37322218707823	2.78527570924145	8.37690366693479	1.0714022853153	-5.17188186481952	2.18307699944306	-3.18778106358351	-0.10232482675845	-1.76282826491126	2.80080365744492	5.47304756569173	-0.0513912986287009	-3.25803718484842	4.29588200652372	-4.96578440215126	-7.09708642056643
0.113284703484795	0.050178872008152	-5.82640167180941	2.71951740798306	9.63918352972347	0.912766974430314	-5.98242606517412	2.98256163251775	-2.46373516282755	-1.70219564232002	-2.25627864199617	3.47878875947182	6.96824670861183	-0.594672436595287	-3.44599271756139	4.62450451893066	-5.13721087963754	-6.7051064504862
0.154848661714679	-0.0708354892306997	-5.87684754401914	3.01224580962015	8.93955418215291	1.57394995199705	-6.54203123312204	3.6291843732349	-2.00301150808081	-2.70505257719972	-2.41775804302604	4.3452335670948	6.85953316398028	-0.98351078637457	-3.61980828094038	5.3444431795092	-5.25173303647268	-5.39857776869498
0.768371627894535	-0.592660036630898	-5.5135592702813	3.90302681158702	7.43909814217641	2.50073607691327	-6.94807821751884	4.20981569567371	-1.7302130831588	-2.76211803443732	-2.69340097519251	5.75091122610251	5.8287183892618	-0.859159509165668	-4.14143877486465	6.37345159394769	-5.40616406048891	-3.12739194519268
1.47457489412201	-1.31068727747643	-4.83340148733841	5.27556321408013	6.18589507680236	3.15084653618218	-7.30442821924567	4.7985701976154	-1.5138880187456	-2.1590555022492	-3.41138432891193	7.6903771940795	4.67114300952812	-0.271091918366991	-4.9525249064356	7.38335740858576	-5.86038733845521	0.161552763879026
1.56129640560126	-1.95164490630668	-3.94140629782263	6.77121992313533	5.26308423236858	3.35464563379485	-7.65962666711039	5.40650496682548	-1.32655623154655	-1.55208248848464	-4.46494625965002	9.78305010511458	3.69096685287209	0.233161389966517	-5.54531414191906	7.98579406693787	-6.86242806272021	4.38741520649242
0.758671189166142	-2.47179333853595	-2.89383357966542	8.02926417612103	4.09600552356788	3.34003183127931	-7.98851297964499	5.95238634034719	-1.3303498286665	-1.46857262220731	-5.21929015874639	11.4405210575722	2.78681908614816	0.107950194906828	-5.4652012483058	7.97034268480053	-8.4290158589602	9.19288905520688
-0.565091299232843	-2.99999837968211	-1.70353014707747	8.85599864972219	2.43895084242874	3.44872854026346	-8.23326115885545	6.28587841681426	-1.76067078457963	-1.97422634071256	-4.83171133898376	12.1539872889115	1.97104473073754	-0.623132116686339	-4.83098798389656	7.42337201251773	-10.297642454379	13.9891066550228
-1.75364789078574	-3.55719399936348	-0.382184399453819	9.23769220419216	0.829917563601277	3.88423703561549	-8.35684038039997	6.28335223521158	-2.61877148765015	-2.70099537032769	-2.93384493865638	11.7982777121682	1.65994624042791	-1.38289150307746	-4.28353156954615	6.64714328826602	-12.106416317267	18.1998543458301
-2.33086337806973	-3.96948448850901	1.00403047642146	9.26308663939457	0.077113964297896	4.63238508431798	-8.34779928880456	5.95959858153013	-3.4796546337831	-3.17967007681585	-0.10987460796896	10.735968568789	2.37419421174874	-1.64054922382716	-4.37620045885718	5.96385381433908	-13.6390816912763	21.505941952096
-2.20715546607366	-4.1164564235951	2.29807451239298	9.05707781977969	0.488635921435435	5.44501316567916	-8.18096085463468	5.49193197349433	-3.70382397942005	-3.25453565423435	2.40190196419318	9.58799811298758	4.17131378014196	-1.47187811286464	-5.01884246959266	5.56402701037123	-14.9160999976335	23.8796536395953
-1.55604557572415	-4.20239128197435	3.2859282577784	8.7609684212955	1.66580705392732	5.87451281639702	-7.79600498686951	5.12064563113466	-2.92132332605051	-3.23049691719775	3.62569984416182	8.81458022152263	6.43858008070295	-1.49325104285281	-5.55899344407789	5.47862492291809	-16.06056108722	25.4086680676485
-0.564063166246141	-4.65936396194822	3.80616188755755	8.51946988018961	2.9073204347395	5.48982582570034	-7.13611138069991	5.00182182855681	-1.36127445846074	-3.51257821304141	3.54702609460041	8.42903121755324	8.31032183141191	-2.20116738680482	-5.4769442732084	5.63064653901773	-17.0693411891575	26.1075810138295
0.647931180595987	-5.67431908053755	3.84316407530756	8.42253532228828	3.69572055641901	4.22762068450334	-6.22684547675016	5.12793728404943	0.2365576585031	-4.00833836955269	2.9291173264768	8.08197488336336	9.32500798624874	-3.37254245705636	-5.02203371994984	5.8940012411172	-17.7021220880435	25.8909709401192
1.85553978133707	-6.79540543757806	3.50375062114694	8.42779201272031	3.85570076770578	2.54703547420066	-5.22747622694776	5.36852364938044	1.0694107043712	-4.00514112015726	2.48740357257722	7.44000382200885	9.64258991212846	-4.17138278075829	-5.07109853308115	6.14367506820622	-17.6073533151987	24.6951433866824
2.60299940730256	-7.11636455836532	2.90987653546006	8.37555471429295	3.42485792053288	1.1436993190056	-4.38516972866671	5.57739311145487	0.826244449679326	-2.860059867755	2.31792225720797	6.48795926076913	9.59638672670111	-3.8819311582761	-6.25960709702543	6.30593215310076	-16.6030136020172	22.6069203933843
2.40207985245268	-6.00145860452325	2.14618333593536	8.14839599102723	2.51633735341434	0.441620001962915	-3.89344266872976	5.6702368438121	-0.0246533208764599	-0.865406694998548	2.1135746066681	5.4716859853474	9.15423937170496	-2.52575159338711	-8.27759210080292	6.38385585513549	-14.8689074076493	19.8883457050479
1.12436861502049	-3.70090488769458	1.31870192124408	7.83486570075673	1.31223016208337	0.353732002954365	-3.76046110750286	5.63996259534267	-0.532357773060421	0.707577823241146	1.7823135520486	4.61949774838294	7.99702331686828	-0.803608066505396	-10.077560477101	6.42960888182323	-12.848691664013	16.8987039156407
-0.794397737445049	-1.23265447402707	0.611323099784497	7.68972204247487	0.0727946588877617	0.514277118601373	-3.8073496216909	5.54639203924118	-0.0148221196998159	0.586095642154801	1.71033474942473	3.99238466023004	6.10565669956986	0.464757123669661	-10.735239598817	6.49093997284065	-10.9204941734701	13.9948196851573
-2.5135913028649	0.407842555299874	0.211735281183839	7.88916012327944	-0.972596575051842	0.69342831586281	-3.79955645671959	5.50011099226089	1.36228654564745	-1.35480725583558	2.41805306975684	3.56961429868912	4.05531065186397	0.860372388623455	-10.0871999445737	6.59290318267802	-9.13322064249529	11.4840842888443
-3.17669523454573	1.01228370240191	0.155333556502408	8.32409657690071	-1.75161661238647	0.978315092056583	-3.59421311989731	5.62352941742293	2.74254163790024	-3.81719410813681	4.01797762552538	3.37169344736732	2.62128643549453	0.521095796031049	-8.65837449710594	6.77200704503069	-7.24560413608281	9.62651335953231
-2.3180961580571	1.23362898739307	0.265426508422853	8.64532300806146	-2.27857068623502	1.59748233891963	-3.19162494930893	5.99281265102291	3.35872697541457	-4.95098958380043	5.97311393138066	3.44543102425971	2.19813381201043	-0.0586565839735513	-7.13131637999507	7.11193850862595	-5.00673673268072	8.60869026777902
-0.157170001672351	1.95235135854395	0.272386328452881	8.52158956033494	-2.44124274211666	2.59397719343029	-2.68032785744239	6.59497046690633	3.16942341174294	-3.63576852269074	7.28040258647654	3.77509977160226	2.66168509099465	-0.405617384916813	-5.90685096994908	7.71816032693197	-2.41857464244063	8.44411114128261
2.35843862074955	3.53382209459918	0.0049406408110011	7.89722362896118	-1.97060060690277	3.64871599815161	-2.14946387321833	7.32505245328504	2.71427633557181	-0.153472663438547	6.95391906303919	4.27970225145746	3.63827317499877	-0.357339836604436	-5.05509810718377	8.62786874240148	0.209094757388036	8.88643285396918
3.95929275599836	5.57245590489407	-0.505469498589331	7.06834750205073	-0.717661711461107	4.23660589993312	-1.64724957675848	8.0270067963566	2.44833028927859	4.08485270309509	4.66625808044095	4.89518559308592	4.73591636746464	-0.0314501150375159	-4.52518206273708	9.71941722068917	2.4161169692582	9.50563331205403
3.85744270377336	7.2125513512677	-1.06456211082372	6.53082935121804	1.03752355442684	4.05984724301979	-1.20233854519214	8.56236661342167	2.38884723784417	7.31659160885073	1.24150935103088	5.58931309929445	5.5673431007386	0.484099744057737	-4.29203971695397	10.6979957401547	3.84797866368975	9.93909271409962
2.36529199908664	7.72201340025663	-1.44914044113414	6.68813893232757	2.55576020395966	3.45400861068958	-0.857738173794368	8.86399471986029	2.38542312570524	8.21035925243593	-1.5340716619022	6.264593175921	5.7667764371677	1.35703865115435	-4.30343589144431	11.1956461661694	4.46069583759244	10.1227307923964
0.690196239755085	6.94505620001652	-1.54715405884795	7.60472097166632	2.94212379587731	3.38848847399621	-0.666066434118347	8.93558233793559	2.51714846492024	6.45326993590286	-1.9864931446064	6.70889409803513	5.16051084156812	2.8593226716565	-4.37958492304276	10.9598795858512	4.5402341852706	10.298592828058
0.0192808051610194	5.38286331262015	-1.42148351163814	8.98608648310955	1.64990766357411	4.91780952709545	-0.653098770058959	8.81638863672728	3.12753721868885	2.9498734029629	0.164280619938261	6.72505584936323	3.95597220661205	5.01000906111319	-4.26329737521621	10.0283231671808	4.48916482876032	10.8135981145431
0.712369721210817	3.84184703959803	-1.25818556109121	10.4124503381607	-1.07824928386103	8.36931000906915	-0.78970041898951	8.57393438883468	4.5320964604607	-0.606217204101096	3.44822972764336	6.33437255561526	2.68570537013713	7.44697196684545	-3.80950198778344	8.75211934821487	4.49741877084628	11.8997701479342
2.19895932774543	2.88904824037594	-1.24484893012707	11.6402433653229	-4.22385131612908	12.8746336564674	-0.990487810975472	8.33866976345167	6.64034474241198	-2.67203732183364	5.67632035599856	5.83877422851984	1.84802648116327	9.66300081066971	-3.12419394010066	7.61213094345086	4.35106450782276	13.5689049582544
3.44934383351564	2.53976295354974	-1.47959986438854	12.7220359866285	-6.657237411563	16.744354521434	-1.13431860029401	8.30679486168877	8.71316857900807	-2.71785632720421	5.56919862557694	5.66703203374414	1.52416572705616	11.305713431716	-2.50437501342111	6.93408922829064	3.57806130452232	15.6018944153292
3.57759446281376	2.39066720212415	-1.96400394156444	13.8653931060039	-7.97501005734803	18.531101596165	-1.10643060229799	8.64427001631563	9.57768005180115	-1.40472385494643	3.58809003460142	6.10860459978112	1.36943289405733	12.2364748063108	-2.22004243972801	6.70806569457698	1.85502535658088	17.5831518308108
2.30448782245648	1.99307502864929	-2.64029524258522	15.1778070968235	-8.62206005295541	17.9298510239306	-0.859348935682005	9.3448520451677	8.43334567932065	0.0192722963798742	1.28666832693585	7.095788404608	1.06745413083742	12.4038924759438	-2.32761635664	6.64956383270792	-0.667451576749272	19.0064086635268
0.149123661753451	1.1062865066306	-3.40807017231049	16.5098509348536	-9.12627385174741	15.7703320937016	-0.456281929815664	10.1789921871842	5.66974465083432	0.601055674326333	-0.0878924896232272	8.1742830973308	0.795764336205873	11.784511024953	-2.65764745278973	6.44414059334675	-3.42665021652869	19.4870883327951
-1.79034226159093	-0.298728905588318	-4.11148787551849	17.5031618935203	-9.399569731902	13.2417506662136	-0.0457267359512779	10.8055861978716	2.7885324214127	0.191137311691845	-0.409752014385774	8.73268513408594	1.10436376593375	10.4603825581508	-2.92602262822538	5.96331670277004	-5.85555601866438	19.0056626992455
-2.46098679522029	-2.13447094627504	-4.54650068977406	17.7982776853748	-8.95859573805805	11.1231898228223	0.229849351744778	10.9742202927726	1.32529834779197	-0.687490774883449	-0.381149854730935	8.39966153795135	2.25121588244489	8.6810077575884	-2.84484127124171	5.28128136289049	-7.7817042396346	18.005049203512
-1.52569026170561	-4.22452230271289	-4.52928115069478	17.2550321441268	-7.67850347806357	9.57289794516425	0.315689674394588	10.6659166406937	1.74255080458265	-1.38616308968213	-0.697995798467457	7.31714651464533	3.77305099209974	6.81754365009941	-2.2393011640384	4.52470730643103	-9.49037170174276	17.2136429196735
0.440154883187991	-6.28537350661034	-3.99598428776729	16.0394774410274	-6.0907324467191	8.41423716395002	0.246013488407673	10.0695366902162	3.28016583517495	-1.62691331903706	-1.461961263046	6.00698327885212	4.82882968475356	5.28988056779471	-1.22086037983582	3.74120502554674	-11.4237763560986	17.2501373163266
2.3959734688636	-7.98552719799884	-3.05232770823906	14.5355782878367	-4.93164760903679	7.50654513317193	0.0745815436832937	9.42355480489604	4.74063475498524	-1.55489333262104	-2.21881179966096	4.92676722990677	4.92938322759605	4.50831587395282	-0.280966260026328	2.91630103359701	-13.7573578394775	18.2394207589346
3.52410159394808	-9.09877604537236	-1.92666245842854	13.1546333186826	-4.49167328358869	6.87577928300352	-0.194559288546218	8.85814220164776	5.35420149474018	-1.36095937098425	-2.51990876421344	4.17996305147629	4.32113065897445	4.72848312014225	-0.0809538597562325	2.07902899556084	-16.1669054397831	19.6993755916099
3.59265850164524	-9.62515997876597	-0.864145426939124	12.1573587470906	-4.39767345921267	6.58708172571421	-0.618719972134387	8.35693044604851	5.03801693621841	-0.981047197235878	-2.45163267293455	3.65537477921309	3.75538846417326	5.82315441851974	-0.993080933355728	1.34215679348237	-17.9784635837896	20.8111577749901
2.82957542343343	-9.75539828777486	-0.0420624494988568	11.5850269725672	-4.02326741679247	6.58021169394065	-1.26754114519876	7.84129564025856	4.12260477113271	-0.311527906807954	-2.5288361417734	3.33490093844703	3.86416573211176	7.21919097953247	-2.78051304197845	0.827855104944483	-18.6212196163176	20.9234337440179
1.59808495681654	-9.700666760727	0.446712559703556	11.3283272294338	-3.18799833703443	6.66933118503662	-2.15105864756011	7.27885866347279	2.99342917181848	0.358850639003792	-3.05759793767162	3.37777611438852	4.56443118373163	8.18171001891653	-4.71320461004788	0.576196273714409	-18.0383429073558	19.9422583907851
0.201298862681873	-9.55194365124602	0.562632525825276	11.2533641779977	-2.45267091587666	6.67776017239255	-3.17094192102285	6.71574225650842	1.88205968216556	0.405014282625794	-3.77465874756973	3.95293670039	4.98218817249054	8.26182838238735	-6.01070744034103	0.536580479861191	-16.7202047189622	18.32754535667
-1.13326321497292	-9.29658768332752	0.302336811176255	11.2656980139808	-2.57195503889302	6.52419712192698	-4.1237737766067	6.21349075990973	0.830555195132435	-0.534240346138557	-4.19100778054531	5.03287686080109	4.15104676117595	7.53417001457542	-6.2746649000909	0.631407193069139	-15.3580384978254	16.7421145996985
-2.21151636024491	-8.94167502801347	-0.265583493766647	11.2921510127481	-3.55891311197549	6.18006387484448	-4.75440579126722	5.76120540072202	-0.15457058401315	-2.15648399286683	-4.0930389766968	6.27746968673285	2.02194583093334	6.45702794957666	-5.65703706163044	0.806013655832157	-14.4435386775693	15.6775791074571
-2.83524429246645	-8.60613418318187	-0.949536105117328	11.2536329655045	-4.43329024480208	5.59811161281508	-4.83402143457484	5.2574853486718	-0.869879896955676	-3.79165657701571	-3.55615968593479	7.08041454711748	-0.254310736391632	5.52482599279702	-4.68987490494127	1.00764493302848	-14.1261041540195	15.3338965345936
-2.798309784711	-8.49647584043034	-1.45676927194352	11.0713833511832	-4.10945255501134	4.72339531403298	-4.23196401099384	4.59033289405158	-0.902517579965087	-4.97579746631718	-2.6589437334953	6.85708723638707	-1.26544294300433	4.98240551865896	-3.8748147136057	1.13016378240722	-14.3369409364175	15.7351540219698
-2.00633665902974	-8.75767668993851	-1.51844778046452	10.6857826518754	-2.52781163402716	3.56806792756071	-2.94424974170363	3.73722540402354	0.0306579717444251	-5.608306165808	-1.46434238053631	5.44531209959183	-0.609420698315182	4.71962924327103	-3.29636727359411	1.01939068686196	-14.9418356266189	16.856959289258
-0.688999794554736	-9.30104517449506	-1.03357999364718	10.0642306690967	-0.748925523028371	2.26117802786387	-1.05166558731514	2.77276144888329	1.70428135288287	-5.66316485459845	-0.267362135861594	3.2668513465638	0.867857783633279	4.36122917898167	-2.56879129561861	0.573052701770392	-15.7423224681344	18.612884005993
0.573228226253584	-9.81035122532061	-0.11789921845147	9.19518678765988	0.0607316057612683	1.04884053170234	1.34952986796888	1.77190266517799	3.41560220662318	-5.04670676653949	0.394460278342338	1.07680885433916	2.02656210264211	3.56159745223597	-1.20413823198996	-0.153016649922261	-16.4073838607693	20.76243006626
1.19544883593686	-9.98838944107254	0.969533266819152	8.08181491869196	-0.439903152012892	0.27693826399813	4.1445291263855	0.729233414114795	4.46723034635156	-3.88996560277732	0.152822303411889	-0.471679463950798	2.39496494495219	2.36863915669055	0.8958664900805	-0.948672936890427	-16.5423247472143	22.9000438389637
1.04864016781255	-9.79418158104802	1.95663710518173	6.76259607387558	-1.82632717328899	0.30757364340152	7.11224010221528	-0.398877222115227	4.65317059594448	-2.76857082187417	-0.804243967246979	-1.10666403830652	2.16273318879492	1.33389396643277	3.27286438811517	-1.57488219079145	-15.9217663906131	24.5844384814452
0.563996767555421	-9.38972528596953	2.66509437217391	5.35634348855352	-3.58873510835686	1.27472931295374	9.89137776522993	-1.57884340861124	4.28545875815443	-2.30024054986911	-1.84389560748048	-0.945613255762463	1.51283971707739	1.1770050942068	5.22089605004261	-1.91221229778114	-14.6715600018845	25.5204130079944
0.342802383514418	-8.87555708824321	3.05287463808995	4.06852706301531	-5.50267681051918	2.81225080711197	12.1193499371317	-2.65681344025612	3.7692348348463	-2.4640165766993	-2.36926184070481	-0.347309418303512	0.28799489316161	2.21257319062974	6.29535802692869	-2.02381561493052	-13.2030393514073	25.6721562474449
0.627591571113994	-8.16340039633286	3.19560302999427	3.10611544405694	-7.39842590319748	4.10594920264389	13.6611350150252	-3.44782288021016	3.19677443129934	-2.4944626328294	-2.19340352982445	0.257001382981281	-1.62208329480368	4.0095471133728	6.62839852218768	-2.09502690418313	-11.9451516447492	25.2589180205122
1.12466616751001	-7.1478204124057	3.23484195348813	2.54253013693556	-8.81924957099569	4.35188657100366	14.715008205136	-3.87095590732918	2.37039845154169	-1.52819461405313	-1.61038380471928	0.522397815584253	-3.7940017070164	5.60956715522494	6.85668887633831	-2.29556502442856	-11.0856101609248	24.6501739381161
1.31839823686144	-5.95332066038347	3.31863046267477	2.23908230791734	-9.10335532196277	3.22466596519889	15.6805144702834	-4.01153941012255	1.13425927130237	0.688888491554049	-1.23760175874589	0.337244345814836	-5.42767979547581	6.16652266431706	7.71185863786911	-2.6604158010183	-10.4924360848546	24.2008638167097
0.951509419250868	-4.93640824422168	3.54482427723837	1.89666163753153	-7.8862715150308	0.968843226642144	16.8764466633028	-4.07014153615869	-0.401801730882811	3.63369933044757	-1.65483586034648	-0.120474646535477	-6.03168699507729	5.49208780878832	9.50338518509339	-3.07490915776214	-9.85661466118245	24.0925851143668
0.240739048487881	-4.39817960251498	3.92240197312421	1.22199924462731	-5.50771805223947	-1.83790131782563	18.3023868887771	-4.23662172993254	-1.87690078325302	6.30685985092993	-2.93995005109965	-0.503048349941921	-5.82665732739583	4.08468807335468	11.8365706554108	-3.37445561031141	-8.96011985477606	24.2612281098715
-0.30780774849495	-4.26697052320934	4.37426791909531	0.110131517170751	-2.83218089155258	-4.57538977071596	19.5972198968319	-4.56374612142275	-2.78808146010558	7.69294551233167	-4.46300934558287	-0.532233539144485	-5.409750970447	2.69329392573831	13.8145378191501	-3.47217765902988	-7.85676530668666	24.4369926804807
-0.295817972168887	-4.05327869800069	4.77820010608926	-1.28552570348309	-0.584334904741564	-6.79510472455088	20.2250211164758	-4.92471694411883	-2.69673283757239	7.26242656310016	-5.25433429012885	-0.167781700000568	-5.12399997544793	1.82675455834371	14.6183573731303	-3.40024741069797	-6.7841152902626	24.2411408363052
0.26752016668299	-3.17281627785493	5.01213279894153	-2.66372685414396	1.18973068769445	-8.3693253550765	19.7760637736242	-5.10170554475409	-1.57650654599645	5.35430655162514	-4.76622143770532	0.431531268687364	-4.84032509229336	1.54486217864832	14.0341789342763	-3.24395245688675	-5.8720024643724	23.2766009746118
1.00985916489398	-1.43842515978856	4.99273930473054	-3.79001928067983	3.05249578368584	-9.52372278556864	18.1892263355307	-4.95772088164307	0.00631036185581113	3.05051681346229	-3.3574955918105	1.07482244865542	-4.2693318028405	1.56204997414632	12.5301875179151	-3.06262723496655	-4.94083685299414	21.2087111475092
1.55701071731783	0.681017051081957	4.73033628470879	-4.6287261316297	5.54245107907269	-10.6271129676498	15.7599005847139	-4.56388528814922	1.25300073541247	1.40202449269473	-1.92041269290813	1.60502538930705	-3.36675443326787	1.50666932781293	10.856536636694	-2.88509812100851	-3.60337966378767	17.8639513766788
1.84435668741247	2.33019312752366	4.38681676580262	-5.28133968315829	8.4674523757938	-11.7685945294262	12.9562784526381	-4.17556171127836	1.79886368731733	0.587830404378985	-0.887801977639503	1.7811347865699	-2.44526937100467	1.16326115297576	9.52058087662619	-2.75899806863345	-1.57864992292167	13.340304181639
2.05839747334062	2.89577567305456	4.25928137663749	-5.82871423641626	10.7616499689455	-12.4854700026629	10.1935192945777	-4.06822226537018	1.96754377446527	-0.118015174260525	0.316377069030738	1.21883462044472	-1.96725113228225	0.585657403964561	8.55474172321137	-2.77167099717298	1.06108912003248	8.06324640318416
2.35516973019617	2.42346189738075	4.64204509379041	-6.26036434539435	11.2396133208395	-12.0784368430335	7.71861291459621	-4.35767572993719	2.31007151420484	-1.42651285557801	2.62301203628252	-0.346258315856665	-2.22749141465076	0.0518465482267034	7.70883076278716	-3.011072231673	3.89879626823966	2.70346501943612
2.74229859637746	1.44451215116602	5.64048639393292	-6.53179413258172	9.78364798487279	-10.3891801963844	5.64824709077096	-4.93815959206777	2.95410059161147	-3.09775763576362	6.1055606907526	-2.66640063461188	-3.10701473256811	-0.111729916743147	6.83342579992017	-3.51012586119745	6.40222012051877	-2.05267413613981
3.20187921464731	0.45150217932045	7.07497057626659	-6.62546516767005	7.82671014253737	-8.21783729991811	4.06829703898228	-5.56840393631347	3.47624945027988	-4.04505638307377	9.64393963955022	-4.97224590108565	-4.01062378461009	0.248024975611028	6.08788912957424	-4.21652437307192	8.19531596981489	-5.76001473736475
3.78808410183759	-0.431681421005502	8.53760593594899	-6.51941981449555	7.40776275116643	-6.79161911071257	3.06271131386703	-6.02268266046713	3.37911189452315	-3.39823584118585	11.8584470499362	-6.46473429787074	-4.16770409131908	1.01474938957895	5.79760225698748	-4.98847525918248	9.20210838284144	-8.33645432064126
4.53950404220628	-1.36096003716132	9.54355696615922	-6.12329250085025	9.49548094208379	-6.78539717788882	2.63481562741072	-6.20666769999584	2.61114667073287	-1.36518190900904	12.1834310692691	-6.83058735751244	-3.28342615631915	1.94100836566026	6.10680628921254	-5.62615680473598	9.6091747099305	-10.0032486126773
5.354708873541	-2.49966901799759	9.68638600323241	-5.30371782817897	13.1766889121175	-7.8988665197822	2.61916139313566	-6.19569152568612	1.6043518117935	0.946333723264201	11.0107228671181	-6.32370036844483	-1.92893871820737	2.85599098260462	6.74201488902138	-5.96777489142852	9.71869237758606	-11.142102986743
6.01990015555137	-3.86759609933153	8.75833588438707	-4.02047718498782	16.5233027273566	-9.29375974265796	2.70660125242358	-6.18890720178145	0.866372220106285	2.36320967575187	9.10701489001121	-5.44643402711033	-1.04459038420271	3.69015632696416	7.11762466811406	-6.01595357333123	9.8122436298079	-12.1721294471301
6.35440079327485	-5.36052257782731	6.825660812533	-2.45758221187966	18.2698697570446	-10.3318934622207	2.59456447355142	-6.38254881058951	0.560576818812568	2.29595702790449	7.06548295685102	-4.56005998432321	-0.992075509505335	4.36837212620917	6.75026295625452	-5.97656761297005	10.0861342581169	-13.4480034351828
6.30708473788231	-6.79638325490395	4.2266042522087	-1.00252771657422	18.6855324283473	-10.968287597969	2.15286977128234	-6.81872631235267	0.397683419312015	0.950623798162957	5.07986953884754	-3.69339873456329	-1.28755829069583	4.81817600754746	5.64917073646208	-6.12840016180326	10.6246615690181	-15.1477027330113
5.93605022367928	-7.89638829338185	1.46627566985057	-0.0447792192333418	18.9514915383264	-11.6174950262872	1.47795591479725	-7.32750536522025	-0.121431390907879	-0.76587433091063	2.98392577761965	-2.63546167173927	-1.30933098799612	5.07587234804032	4.31498185651425	-6.59707615273862	11.3655699696414	-17.1927448084797
5.3378360818823	-8.28256448213801	-0.949017157666538	0.256887769714886	19.8430119106197	-12.7196706541754	0.804827422089143	-7.63099075935006	-1.24941621860099	-1.71509321694368	0.53870084488885	-1.21104919440506	-1.07016198848225	5.23011048889102	3.3610953339151	-7.2238659129344	12.0895565639287	-19.2770879022171
4.61282942188176	-7.64094658921087	-2.65387789468572	0.0368891200033723	21.0079440979285	-14.3462709885501	0.369734797300686	-7.53421481738548	-2.64682742615022	-1.31299944182188	-2.17455069529523	0.489271624399999	-1.17926138374263	5.18767584744429	3.15081441948176	-7.66203579168035	12.5090552740665	-20.9990698001363
3.90269655018332	-6.02929827341239	-3.50208674565599	-0.425178713341777	21.3775722843963	-16.0962675505107	0.336877736127837	-7.05201180430369	-3.52217757798666	-0.0433215518310059	-4.59159191637452	2.10322386710558	-2.12713119800615	4.60799210853291	3.72414002392136	-7.63883026652419	12.4535318077264	-22.0128972539751
3.44110416419664	-4.04066559196916	-3.59340070889845	-0.906688335620884	20.2168685382407	-17.3659917629155	0.795778389988212	-6.39127151926136	-3.23466778725705	0.869086039384936	-5.93043026054015	3.19636153925525	-3.68073743622492	3.21571266248965	4.89201137749033	-7.17160295548291	12.022297544898	-22.1348399836781
3.49332143155486	-2.54707814393312	-3.24317382382997	-1.33545768852172	17.8675260961621	-17.8300342596106	1.7537522845326	-5.82196278680036	-1.837983551865	0.440621113590539	-5.74803123656144	3.51300545323406	-4.93908923051249	1.18474927695856	6.2799874551078	-6.5563661650425	11.5561984307962	-21.3891583041809
4.16357843224475	-2.14008815579452	-2.85717980320114	-1.75921031899097	15.4927788051726	-17.7254863235137	3.10003330566007	-5.52002088370177	-0.0797472126148814	-1.25969781211024	-4.39390554411464	3.14045072621794	-4.98889563794676	-0.87987312534182	7.34869912149644	-6.13262545235409	11.4186981899545	-19.9890473816618
5.22714743389282	-2.72657601058271	-2.72625995752838	-2.2664283220075	13.9670053082769	-17.6239379741367	4.60803520277062	-5.46479948122702	1.12135959796931	-3.21093697374961	-2.909506584086	2.50696710675118	-3.66461163520008	-2.38850754836368	7.5655654098701	-6.02614316837565	11.7480887839408	-18.2475615459931
6.15915457498482	-3.63840418583917	-2.85855953636615	-2.90491594708133	12.9914884703381	-17.8995091460141	6.02937646886724	-5.45946809687034	1.28725083378007	-4.41564751436554	-2.28966785186448	2.17533944124806	-1.76372524412214	-3.20394829420915	6.73176028739269	-6.10219905048182	12.3738727735863	-16.4455041453596
6.38563857246546	-4.17430061061842	-2.98903862439908	-3.61631155766458	11.4634988117055	-18.449287479086	7.22960963565791	-5.28184367356521	0.626602278705788	-4.82564977139472	-2.68417817585034	2.48921345141063	-0.388387954882554	-3.68893363792784	5.20128644992131	-6.16198756012679	12.9511583741955	-14.725178904741
5.63205959378885	-4.10933432916289	-2.7883391092682	-4.23394754398374	8.74384303051188	-18.8931975458578	8.25070040476915	-4.8653822412097	-0.231678466585664	-5.24155220599769	-3.30404387740206	3.2777131644343	0.0563065396340514	-4.36357348125418	3.70877096794685	-6.16554037582624	13.1891673375503	-13.0749480295712
4.15816795254859	-3.74078831973996	-2.12777234691007	-4.58318292920163	5.38179401669749	-18.9415575031702	9.23974211368113	-4.36188850927125	-0.738072958213717	-6.28897865959695	-3.13939299101547	3.87286896858372	0.170572635082663	-5.46157505612717	2.85684278263353	-6.24775024134834	12.9895355775246	-11.4074019348939
2.69171894053484	-3.49916177912228	-1.19995149792886	-4.62524628426512	2.56726791708659	-18.5617680477754	10.3003981418118	-4.02758848316285	-0.705814211138729	-7.63964139736945	-1.81342518502644	3.52624017579847	0.854517630719822	-6.73464433300346	2.69894298540872	-6.54050675284343	12.4123086144938	-9.67158330250747
2.04800283788008	-3.56464256655488	-0.400223412020109	-4.50715049702573	1.07078251940494	-17.9044879169224	11.3883897212699	-4.0238676157344	-0.256647569546271	-8.31849479953633	0.166435357747502	1.98469337664313	2.39297095053681	-7.65366646612517	2.81671889227157	-7.02520666632426	11.5518349949239	-7.93305351514561
2.64063762546878	-3.82696183916639	-0.0488347446393342	-4.44938350515005	0.746339257840824	-17.152125267094	12.3339034922813	-4.29055598064033	0.296986558863634	-7.61161368612509	1.87413390904741	-0.244049242262105	4.21331186043418	-7.80841324699358	2.80046946249128	-7.56780657118243	10.4661922775216	-6.38386215968317
4.18485377907096	-4.09132438675886	-0.156151605489418	-4.57392728288696	0.783905496895868	-16.4015247444146	12.9703238967074	-4.58733724124065	0.495208805552176	-5.55745525680552	2.64426580269486	-2.21856884451388	5.3543991416697	-7.17987790245454	2.64854864862455	-8.05770247750771	9.20607988240265	-5.26618734060311
5.81390706470094	-4.23169507930918	-0.419062698916227	-4.8469336676862	0.259858021277872	-15.6128903943053	13.2632666044844	-4.66950168673722	-0.0820749078688747	-2.81167065130723	2.43021609137006	-3.22025491043269	5.13530605441841	-6.14899783960346	2.7324233810668	-8.47799904875424	7.86158304731529	-4.72632439282598
6.59814846105097	-4.18593020768793	-0.457297727746565	-5.17652421071207	-1.3284252563351	-14.652444582061	13.3352936611589	-4.46254766218844	-1.43246390663255	-0.356767849676324	1.73574016324882	-3.16811208908466	3.60996810113536	-5.27204222953324	3.40475909785183	-8.85080880644667	6.53755904058702	-4.67685550274509
6.16048903999797	-3.92705714940003	-0.0850062986788584	-5.52587844993647	-3.69745421478296	-13.427940689872	13.3693154315571	-4.10363544273212	-2.95969581036926	0.803759462069221	1.3072565767612	-2.52877308354986	1.5870653945662	-4.91150970696073	4.61108312557178	-9.14635372654797	5.27046261122458	-4.77673323312206
4.93103451198606	-3.52182156834075	0.606512104112979	-5.90636470096911	-5.88714774535707	-12.0227071777357	13.4724403142067	-3.83032245813597	-3.82776808033907	0.140878781586945	1.72938575795877	-1.93313610951212	0.119502014427012	-4.9659614087788	5.84096264724095	-9.26224031742439	3.98785587808019	-4.58070312056261
3.79835046779929	-3.18008259237161	1.37877893403728	-6.28986350180675	-6.98127376490459	-10.6853816892821	13.6103710447533	-3.81910646993089	-3.57254455492987	-1.95063524910878	3.03363883812361	-1.80327572354581	-0.271552864827246	-4.991685510762	6.4806551762069	-9.09280767746614	2.59002534154296	-3.78696130772634
3.41684980995619	-3.13128359089982	2.02890431582845	-6.58454953986202	-6.89496410992496	-9.62833789722797	13.6616108209494	-4.09638289205942	-2.44185405357167	-4.25297923692419	4.57539380986084	-2.15063952148668	0.0343991828227979	-4.64495103921298	6.27872387203967	-8.62624609136665	1.1069807956755	-2.41696280294582
3.75853901926269	-3.37929925388189	2.47585222075678	-6.72313896062726	-6.40992990348456	-8.78532392234789	13.5407132312018	-4.56243953763545	-1.22487275631721	-5.43544024844708	5.4309572265768	-2.63869119347313	0.221256163619401	-3.96208238175711	5.51308055453578	-7.98923446608728	-0.223716992204825	-0.78750151094739
4.27615570841963	-3.60997730121926	2.72629809163171	-6.75889587363642	-6.38026598858055	-7.7913794127397	13.2811050319254	-5.08029674754351	-0.722117181576022	-4.8900859253396	5.12952248470988	-2.88373874979699	-0.136790816597717	-3.15108168471826	4.71751779337037	-7.4004824063839	-1.06913169768088	0.701398141208966
4.47310282372939	-3.41774629047086	2.78532678730601	-6.85095323791414	-6.95213841726976	-6.28767606844451	13.0012604208845	-5.55270332049931	-1.2074508599227	-3.10796773852396	4.04727975507674	-2.74213107120661	-0.797112646972975	-2.18001681698831	4.24867500166564	-7.06280292039158	-1.24112073736428	1.77817466672695
4.32693393868724	-2.67291199067116	2.60100867046045	-7.14236634543468	-7.56443218584462	-4.31414768433087	12.7781611445846	-5.93821301832976	-2.24538947983149	-1.31751525689857	3.01284204946331	-2.33727303694786	-1.35137837756983	-0.737324857485262	4.1177012165575	-7.06762972274719	-0.867578162069563	2.35285308758517
4.20253962286901	-1.67092680656216	2.10595797026098	-7.63451452297871	-7.59227505489548	-2.40886897972312	12.539127584081	-6.21340146660154	-3.01301172997458	-0.630625361964799	2.54090680288291	-1.89421344464126	-1.82750876603775	1.31690324668684	4.20266027819532	-7.3674726732727	-0.336367853080907	2.44075185286585
4.40173638529821	-0.889876690303493	1.32715027491421	-8.15497628520098	-6.91136351627171	-1.27574866439092	12.0813655394076	-6.33423526195205	-2.88293132033324	-1.32382798569223	2.51850848151824	-1.62771548810293	-2.69486703934255	3.53931474923102	4.52866280391142	-7.81309241426033	-0.0464513744340933	2.09800916576771
4.82985128055031	-0.562939340322577	0.436972963772269	-8.44923619951376	-5.92433427012142	-1.26092395341597	11.2203924018284	-6.24097809425816	-1.80495409755633	-2.76294532338543	2.55514941681002	-1.73260128873228	-4.32196320253762	5.05822466862849	5.27237929497955	-8.2144846742545	-0.177908451808453	1.42291532795231
5.09595028916922	-0.47908420900678	-0.343589868958706	-8.35135299990878	-5.19085967167642	-2.03641022000799	9.93494344493215	-5.89830425715734	-0.252890130530725	-3.96416771481678	2.45899578586239	-2.32001472660327	-6.50523937654926	5.18092329757229	6.52887660238074	-8.39519122449308	-0.668099592199493	0.543742832209925
4.90184708865064	-0.217135259015024	-0.902907866729455	-7.92017082299281	-5.05091253197492	-2.75100154009562	8.35839031262302	-5.3295757419312	1.10406076378421	-4.3189253918084	2.34447762436561	-3.26797985384541	-8.543176898427	3.87198338682376	8.1390561963233	-8.24096218324032	-1.36796597406112	-0.465189593134193
4.32536151755284	0.410692411388201	-1.28042555766786	-7.41920220594784	-5.42890480392403	-2.60220628215494	6.61492526976175	-4.61672416703704	1.73592085191011	-3.92186053222045	2.40154065753486	-4.17917480935127	-9.73582085169334	1.71051573040665	9.74370072882185	-7.75130558799206	-2.18976297848579	-1.65810811081859
3.75700361041594	1.12820418106326	-1.55756062712225	-7.12464568258885	-5.83949637747365	-1.41751636248999	4.66942325112665	-3.86771023192692	1.44905446226426	-3.28275768799403	2.62709566039023	-4.5903909503799	-9.82197461786043	-0.544594739469892	10.9814821063809	-7.07021246687766	-3.12197745915082	-3.15945659619101
3.56042727265257	1.38724687296984	-1.75103083347604	-7.1069004800385	-5.68200156191614	0.299505557939856	2.35679482273684	-3.18152748707023	0.392415669341974	-2.74328891867278	2.75598598303151	-4.31536989911663	-9.04251613629592	-2.3721909303934	11.6508271791379	-6.44334877778139	-4.16413340368032	-4.98996055734869
3.73774408701236	0.815803495430478	-1.82860981481261	-7.19110498164851	-4.73574657626775	1.90126791148643	-0.425021180250241	-2.6425319671309	-1.10793977042341	-2.18014828663138	2.46508341128604	-3.6431625658104	-7.90790686405313	-3.62364018567474	11.7181724904309	-6.08865724984796	-5.29385572334915	-6.95070708864616
3.89400266818585	-0.452792042980194	-1.78404801128959	-7.16046901857538	-3.35851620433763	3.0521461986715	-3.53348904316302	-2.33248007615054	-2.73758962053223	-1.26223749721293	1.68873309639733	-3.19221238091029	-6.91674947520152	-4.41149283638168	11.220621871508	-6.06471868184571	-6.48339049697152	-8.70841464431713
3.58173773610283	-1.85720140325024	-1.65215473603691	-7.01435554764185	-2.08130496647296	3.63310313578109	-6.56223777028148	-2.31469028336427	-4.22711194221637	0.0461970607013016	0.717144010509963	-3.47820307745848	-6.37264641187877	-4.92854836440457	10.233502925905	-6.25743803085861	-7.69897708138189	-10.0233093127892
2.765634156187	-2.84746268928078	-1.45863042160631	-6.99580100673255	-1.06062331565911	3.47637845393318	-8.98620049428122	-2.58729532049069	-5.24158079637425	1.28973884871182	-0.046954119821264	-4.53746389162552	-6.30373761284573	-5.3105895326892	8.9569091586134	-6.50032268643338	-8.86248655054434	-10.9041910927218
1.96939259628455	-3.29558987861514	-1.18701317675935	-7.33031602940152	-0.0471045739632099	2.46532978291636	-10.3659761874086	-3.06546826769638	-5.36693040139362	1.86722223368773	-0.396442100493714	-5.94737621800816	-6.4765370541861	-5.57637474044826	7.74530684115103	-6.70561428948284	-9.84142945351408	-11.5428037805513
1.89255828445298	-3.49431842398309	-0.809868968056301	-7.95782384147612	1.12289572614633	0.827043500202479	-10.501545959902	-3.62796357284202	-4.38392485863929	1.59249313490239	-0.39700289269649	-7.18101833038582	-6.55876097874648	-5.6791061579691	6.94164725444666	-6.88335042089731	-10.5103727372509	-12.105211730907
2.78741899134655	-3.79338544488002	-0.351415670989203	-8.56297808522055	2.09524064645624	-0.897743233830659	-9.46873317705604	-4.18049263142626	-2.63827349270566	0.910358153497284	-0.285675599867737	-7.90676926846482	-6.4142885132806	-5.65108229277541	6.66778872310553	-7.05414630963325	-10.8244761537801	-12.5927781223738
4.19553354092581	-4.30014236835994	0.0857678570882567	-8.85496109415581	2.15658274220168	-2.26588429516336	-7.5312633492564	-4.67623879474115	-1.01814067367256	0.530690799337242	-0.347986205355461	-8.03836598265017	-6.28321250369712	-5.67634117687206	6.80769208918007	-7.16494210225242	-10.8272500030236	-12.8920400437765
5.35360922450536	-4.9301094503612	0.365200511944745	-8.77847409162412	0.949860561837315	-3.29840434294964	-5.00204898629543	-5.10249493428227	-0.339532665063729	0.797845042353709	-0.769133279389208	-7.67895290131725	-6.56401612390429	-5.94523330873922	7.15984550087286	-7.10368376655632	-10.6045923377066	-12.9353906259291
5.8712326459501	-5.632062500138	0.399488802582078	-8.47947216621828	-0.921071541280597	-4.44364028635033	-2.17204676160922	-5.47058814672305	-0.642748582172785	1.36515679169394	-1.49328792850083	-7.06993349676811	-7.31104970852204	-6.42477206700186	7.53360951262241	-6.80513446965267	-10.2491368972368	-12.804669190722
5.95278563894496	-6.42321547224778	0.19763704973778	-8.14201134877378	-2.09959014265069	-6.18573380111063	0.645521854467094	-5.80334975194811	-1.14968424280916	1.45914286482239	-2.23051647905407	-6.49374627326462	-7.97772187011588	-6.82799213107899	7.7011367644867	-6.33857460107848	-9.84564203629652	-12.6900083932821
5.96800033416314	-7.1656205855111	-0.165567947476184	-7.88190540023378	-1.42657660648868	-8.62658539702937	3.04108290409705	-6.10519865865557	-0.994224416690004	0.519462867218455	-2.61241200006024	-6.15792004753624	-7.77648673336956	-6.82910513748488	7.36688626300694	-5.87857214672602	-9.43769607266508	-12.7560787317626
5.93817763787213	-7.39983126133848	-0.62248602417311	-7.75023182319495	1.2015464366872	-11.3381532418107	4.53492099987753	-6.34771948134451	-0.0274024183602518	-1.24391446314029	-2.39733270654868	-6.16572188083921	-6.38163786766131	-6.30226982126217	6.32068927948611	-5.58618687360204	-8.97767985132069	-13.0348712788482
5.51787276853102	-6.53314396489552	-1.15257749213189	-7.78135725748464	4.78295376547559	-13.5645616750268	4.74047416222651	-6.50184592304161	1.06515152150147	-2.81892247047154	-1.66006745929616	-6.53536753581299	-4.30410741371972	-5.3933381490946	4.67192959650137	-5.51746370045391	-8.32325898397206	-13.4229439969331
4.39498282962448	-4.28196737080756	-1.75392707368337	-8.00122323601181	7.90374221581021	-14.6223865306546	3.57269324447258	-6.57843663925876	1.40300291285139	-3.09493631604235	-0.776267427319875	-7.17393401850999	-2.56663646425147	-4.40939701539267	2.87429537178991	-5.62264959812798	-7.31201768231058	-13.7678500111671
2.63117006541479	-0.979220266259384	-2.38167242454108	-8.37687087352536	9.55214624979383	-14.2314338706611	1.35989815956373	-6.61767087034581	0.672373954867136	-1.84010266432084	-0.0598268762784548	-7.8790379113661	-1.94652142586141	-3.63525055682388	1.44502206502287	-5.8003104102895	-5.85282770922021	-13.9653403534616
0.67236269693865	2.53321765291692	-2.92160035109596	-8.78266943825625	9.50917706554581	-12.5861343346186	-1.22962168284684	-6.63407378426135	-0.665965205389473	0.0661144318683142	0.558654488337086	-8.45749315254473	-2.40763955401877	-3.21714994375453	0.637836344297166	-5.95369957895786	-3.95353249472937	-13.9994445451669
-0.896018828278933	5.37321897245577	-3.24220324300464	-9.07126743891854	8.19572646707516	-10.1765445098702	-3.43013172936876	-6.58509784475149	-1.8019160014219	1.49887526956559	1.29958337672653	-8.83281318089387	-3.17118582156587	-3.14556863309753	0.35483303832629	-6.03412619678145	-1.68555114164935	-13.9188483467264
-1.65925173541488	7.11409401394392	-3.30045729760791	-9.21945419862428	6.20165532628568	-7.5113824735632	-4.67794000252682	-6.40981756886938	-2.17814461879314	2.0806964242253	2.02108321119432	-8.98870423265217	-3.34752566455677	-3.26947884053713	0.282833350355648	-6.0633135600889	0.854632671561195	-13.7941456706329
-1.58770894492109	7.92948434336813	-3.2083452101366	-9.39582179684546	3.83523154334711	-4.91508739792928	-4.8103739427304	-6.10146594908108	-1.80755457518866	2.23027232522613	2.16503023447594	-8.8501395914163	-2.59484338542223	-3.3664401427858	0.0824145666469129	-6.11282678093605	3.55448055660369	-13.6951952341944
-1.04093669320989	8.29072673469478	-3.17669620899107	-9.83515539934332	0.992587448851735	-2.50819375953546	-4.04942167880501	-5.72659569444833	-1.15203062888708	2.45246752815296	1.24647003100726	-8.30896849553595	-1.28326057398316	-3.33055419989498	-0.439572935680279	-6.23823597043222	6.27067266780458	-13.6793959512316
-0.541453289558512	8.5240768829569	-3.3659014784784	-10.5976635533662	-2.52054511239255	-0.349344074008965	-2.79179027754846	-5.36179438811666	-0.715919572408918	2.83869957806821	-0.716599547144656	-7.3871218954197	-0.0900632005709463	-3.30965304296113	-1.20899139233466	-6.41476621220357	8.79670758082989	-13.7595902588171
-0.447123787935711	8.63057958751082	-3.77732249167154	-11.4404741686395	-6.45755171153874	1.42804063207137	-1.3652753329622	-5.02756932537519	-0.69451404213716	3.19209639993644	-3.20308123208302	-6.32884198495687	0.577171863168194	-3.52849273791353	-1.93079713885953	-6.54023772015381	10.8376826963285	-13.8596637875605
-0.749518458054858	8.45516708103412	-4.27762393258233	-11.9494053215084	-9.9723434863764	2.65417421691487	0.0777751215025138	-4.70514264109961	-0.940244812337297	3.36853582870135	-5.4462675624108	-5.50340408361522	0.814612073628634	-3.91521664618526	-2.32632114130568	-6.51861107110076	12.0640367327894	-13.8063312684108
-1.15681056541647	7.9568329696443	-4.70084156711909	-11.8301482939687	-12.1545051449991	3.312196763406	1.4866355904041	-4.40330401153991	-1.1958824666807	3.38859838918562	-6.70666864465055	-5.21701473331063	0.956637167882673	-4.00426247769233	-2.36218209208913	-6.34916939668541	12.2852108432414	-13.3810884504701
-1.39100994496842	7.31163344098429	-4.90712811979731	-11.1061386352699	-12.7768903131662	3.65994513968475	2.76668396279811	-4.16591727732733	-1.31360473276474	3.31846369929747	-6.53025023133431	-5.56725199289201	1.17401561664323	-3.31258859191325	-2.25823379659126	-6.11937171195591	11.6372891581912	-12.397737649108
-1.44056462885245	6.79528319759029	-4.76767713649321	-10.0688157728092	-12.4421221273548	4.1108725704874	3.72340740947607	-3.99082847322025	-1.26278145471432	3.1335601961729	-4.97588496613803	-6.37666811457326	1.3898464915046	-1.81543523527829	-2.28232141213461	-5.89076046046136	10.5787412674907	-10.7558818585977
-1.56291805190538	6.58610768413354	-4.15869394383791	-9.04630967448301	-11.9957740329158	4.95219484258261	4.16001115553255	-3.76016946655699	-1.01199469103315	2.71762122405818	-2.64162161387463	-7.24581890397736	1.53479078345168	-0.0521607456599806	-2.5280590727547	-5.59830846210482	9.61608217093589	-8.46274626554871
-2.0660600247767	6.66333111138934	-3.03728020689519	-8.19080307866675	-11.8733090351698	6.14771285125268	4.02675796711695	-3.285191533234	-0.521459734997267	2.03257888423528	-0.376203265366214	-7.76572808160132	1.77750383679465	1.20384660309756	-2.87387303101185	-5.09150715457742	8.95730245658936	-5.64986119388104
-3.0633331477896	6.86342443918717	-1.54918527696845	-7.44877363357919	-11.9704302476642	7.37706821408451	3.46464132562195	-2.44322902872245	0.0940842379438709	1.3467488694273	1.11859373175986	-7.7572944571073	2.42306827869194	1.43734612549104	-3.14279370351237	-4.28957043296699	8.41339861838624	-2.59063853907634
-4.35923054485631	7.00101369694078	-0.0274260286520804	-6.70791081130736	-11.9769142110012	8.24650034434981	2.70805470074609	-1.2864541882677	0.477201015428697	1.25172433063147	1.49033391454228	-7.31281294734958	3.52410399380756	0.728444494091789	-3.28063518830703	-3.28072664933527	7.66056147988283	0.3092896498699
-5.4987945820735	6.92029377513464	1.18025223537682	-5.94509693806498	-11.7626593619821	8.52316990679721	1.94927844470887	-0.0271732171574541	0.267031308904516	2.24871917078706	0.768581368280915	-6.6276773565176	4.58982941450043	-0.273404939137057	-3.38387435183133	-2.24993434668985	6.61937362519356	2.57310000322801
-5.95438641577878	6.47027282237472	1.92519225601067	-5.21120896031641	-11.5236819098984	8.30195730599529	1.26580252324499	1.09837374276902	-0.497489553931876	4.13119052007771	-0.565587191073692	-5.83824407174596	4.80859535646729	-0.758740958620637	-3.59710559911505	-1.31029713210012	5.57296935270577	3.76954156227063
-5.40625701707414	5.51266099691399	2.31485044177197	-4.4907355447101	-11.596157192363	8.01264978797216	0.631823250913366	1.99925976314552	-1.3021569493018	5.83831486121357	-1.5952412527601	-5.0103977812599	3.76249564135798	-0.315154401693643	-3.98610612124053	-0.41365950419092	4.89553209149244	3.67473711476397
-4.00185309790685	4.02061132748755	2.56907037598054	-3.62740457462711	-12.0230366869761	8.15631098677294	-0.0152747075872699	2.81185887460335	-1.57758903783494	6.15308540827693	-1.40873120137714	-4.20634113718657	2.03330383967593	0.773110831465891	-4.45707117866456	0.580514978944169	4.65344348221587	2.41808288599558
-2.38867121113538	2.19128159945137	2.82214817446448	-2.42624521902783	-12.2592189108895	8.88570635674482	-0.714308476816199	3.82241498548538	-1.15788145853603	4.70559837790336	0.143149923694812	-3.49235349841126	1.00616312276756	1.75468639622855	-4.79104696850213	1.76479140868219	4.4733056290254	0.485501450284136
-1.37001219376202	0.420917264006826	3.04483352611944	-0.843507768775069	-11.4712419941886	9.83569784441409	-1.48541412983567	5.27505490357795	-0.288015374763837	2.32533896171797	2.07906060707352	-2.86415336558615	1.84501071149095	2.01152447091312	-4.81565976260198	3.1132212088603	3.81999545518346	-1.49912330821647
-1.3332766478628	-0.931712994809795	3.13410287321428	0.922633384935315	-9.25569153719647	10.4155535707821	-2.37247748347637	7.20864207978846	0.712143353783215	0.387060485557523	2.88008985044617	-2.18754707350362	4.52199075263581	1.51111344560671	-4.57052208396472	4.53344452035683	2.45278514311383	-3.09913139762297
-1.9259415270532	-1.8325295528869	3.06711690048458	2.54609735062414	-5.98765468967577	10.2521524705101	-3.42073662560596	9.44007128645768	1.6656538358499	-0.27602311693131	1.72291002331228	-1.25779757030212	7.87136261863099	0.711638124753107	-4.27013370177715	5.97096540485793	0.665386108007754	-4.24298968535975
-2.35551926692957	-2.58970053905638	2.96000463433421	3.80196047686287	-2.49312220387864	9.40192633550196	-4.57715223763593	11.6776436430136	2.47125140960831	0.0718528413415693	-0.743596150503008	0.0172372054780823	10.5685053303166	0.0660147554498074	-4.07485217162991	7.44962762768509	-0.909398270279576	-5.11744710183417
-2.10419097009679	-3.50029483376549	2.9665176822231	4.69292795966003	0.375598589594571	8.32859684914548	-5.64416266681643	13.6498395212853	2.97825670842402	0.556158291389574	-2.90707942068995	1.4276242595646	11.958554921142	-0.342932486723904	-3.90352897771692	8.99777884137017	-1.77921905128138	-5.90425149495292
-1.38786478444646	-4.46008739580384	3.11561269829699	5.35670836732455	1.84706971480035	7.73717893080678	-6.38141088358211	15.1593793817958	3.01556911200327	0.717801135398922	-3.5625820917509	2.45358073034078	12.0533325240913	-0.725378506468269	-3.49186047694978	10.526123608052	-1.9531185952736	-6.60914587664649
-0.923601872332009	-4.97805219057099	3.25117606296555	5.87533825072655	1.3778935508159	8.17385388868925	-6.66747910961964	16.0653072814775	2.54627918389024	0.925148639353027	-2.80361805239203	2.55705048051186	11.0987749304727	-1.26448413922056	-2.67051065741252	11.7857954824696	-1.89596488588207	-7.09614653403412
-1.25274717416248	-4.63629532417163	3.14071419414351	6.20375040019869	-0.917720804718527	9.51748659595084	-6.55590811300403	16.2668365073595	1.79682694738244	1.68744965352137	-1.64723548630456	1.61838098193569	9.35593113067301	-1.9016241024743	-1.62865045014993	12.4850376125269	-2.16612513420428	-7.22986351251632
-2.26675964434702	-3.55458239331283	2.67114402773848	6.2842025195809	-4.08240842068635	10.9016876522483	-6.18540474292829	15.7572933811933	1.20837269591314	2.78666975583162	-0.971449898389935	0.110411956784027	7.12925844232339	-2.35586798862584	-0.892831673654498	12.5106090948137	-3.07723917034457	-6.96809521585127
-3.35031142023217	-2.37427881807743	1.9716939655022	6.20196334239112	-6.82873556968063	11.3183462544885	-5.6625209076969	14.7256619118058	1.13807409676499	3.40768307354128	-0.880346762731869	-1.21634333755924	4.77053757487972	-2.35298454994467	-0.94658238118179	12.0817810502355	-4.623606670689	-6.34979096337659
-3.97241793258581	-1.74177672236999	1.34653194626226	6.19512493108869	-8.28754757633222	10.35701723397	-5.03566316786179	13.5851206468006	1.49380530322249	3.09024678164867	-0.915142511152726	-1.84144735094007	2.65382765984567	-1.94334598082071	-1.7649996350299	11.6734450976959	-6.63367278464453	-5.43003704109533
-4.14966716734922	-1.78878903110716	1.05143210430677	6.48630230531794	-8.25502931353071	8.38882622159567	-4.35286642433556	12.8290933430933	1.72163696285068	2.24130347367763	-0.665921069056504	-1.69774115596891	1.22202895792446	-1.6033259960051	-2.7253880673685	11.7167089374287	-8.96083377487631	-4.22593846543907
-4.33729738192408	-2.11729425835456	1.09812209542754	7.09220645657421	-6.95091872104951	6.16768878386345	-3.71191550383346	12.7736485833741	1.3142984980901	1.610870187541	-0.170582744744673	-1.01884902887791	0.939694215085747	-1.8805154431568	-3.07701380655357	12.2963381821786	-11.5495110560943	-2.70474270721829
-4.88488807893947	-2.25870295083885	1.26156846950288	7.80052096769968	-4.82931638390047	4.3348202471471	-3.23902795553128	13.3838704226724	0.371380446535489	1.47595466864153	0.163682645682127	-0.0925193531992803	1.97411807238109	-2.83121850407662	-2.59680594503648	13.1042527123615	-14.3270323413124	-0.82266695890068
-5.65005720242487	-2.08768657476828	1.28755637947513	8.34473350657641	-2.59933668762081	3.20563186009765	-3.00865729217986	14.3320642105923	-0.452776484508516	1.49725334318958	-0.00860442848295745	0.858673678845521	3.88877573316872	-3.84272593716393	-1.81691179911079	13.7005640992798	-17.0036059409164	1.39971626419099
-6.17899837341959	-1.78409951242438	1.11531603935968	8.61496668500993	-1.11016815094204	2.86071123839399	-2.97628702549633	15.2344619205166	-0.633157904339494	1.28063311564382	-0.566874063399898	1.68658369075551	5.85093345985929	-4.1077712563627	-1.59088257973321	13.8564383640366	-18.9569206833729	3.79380554166756
-6.23718497833875	-1.47193683511165	0.912880525986421	8.71020326380311	-0.951571018456269	3.34286288231674	-3.00063297803939	15.8710526323027	-0.369269043474674	0.909973426008169	-0.935975666974772	2.3092332608631	7.29905060946476	-3.32732039707756	-2.39112783004832	13.681109141156	-19.3405670982697	5.96955359775558
-6.10495857375636	-0.988531563438912	0.893728532716756	8.79155358228802	-2.13640383458135	4.76033303647202	-2.96135158476677	16.2336793850786	-0.448523790852803	0.896814469139822	-0.566054580510315	2.70955588006308	8.34833624859876	-1.94500981668687	-3.95697591683206	13.4499064925367	-17.3901108327998	7.2788753765482
-6.30981254014429	-0.0490286049051574	1.08922212274019	8.88491204620532	-4.23434337149829	7.22919310648369	-2.88347946523839	16.3982143333893	-1.50291016594535	1.66518411507958	0.522407336893144	2.93061173784565	9.42316793540219	-0.695489413455372	-5.55134476985101	13.3332508564976	-12.7606596971475	6.89380158206286
-7.06148656426658	1.37256403387186	1.29094437049651	8.83100854919717	-6.81206290532873	10.7227997725072	-2.95725742584831	16.3508475854102	-3.35060818368189	3.05749843144644	1.64959351902019	3.07654662243695	10.512546706497	0.0594727625588192	-6.55293296515405	13.2852405283389	-5.73353873764022	4.09332559748078
-7.98453801256628	2.87203414633185	1.21594003707733	8.44442657574927	-9.70422253421123	14.9543915373652	-3.4199510860441	15.9355505599487	-4.99671778736191	4.25988422200209	1.98296170351785	3.30173460830179	10.918710636881	0.580893188962542	-6.88390336952712	13.1500680262862	2.78250118319956	-1.27349752363538
-8.44286000100591	3.88097515014192	0.757840310505333	7.73503595185787	-12.8621253591354	19.4035564709279	-4.3763107203365	14.9897665252314	-5.3145367004411	4.29121854537324	1.22855849220605	3.72575107417269	9.8484495287113	1.42018935136935	-6.94913354576721	12.8353815879619	11.4686611736355	-8.41144501846849
-8.12011703474889	4.1344829103452	0.1273000760896	6.96677728865725	-15.9890223815619	23.5101437090469	-5.68726831705844	13.552755601609	-3.89912974433273	2.82144060670935	-0.105422045200148	4.29155442292131	7.29297172387041	2.86868609860799	-7.16582520722194	12.3907760024107	18.9942224600708	-15.6545742949596
-7.28349743275492	3.88548179893018	-0.238394845762409	6.4825185585303	-18.3787323665957	26.9168966089667	-7.01731989497682	11.9366057752235	-1.43925541605457	0.664873579045245	-1.10659315447656	4.72708307012542	4.31077384882188	4.6937777953834	-7.50777442637812	11.9606729104659	24.4626620739152	-21.1259026161842
-6.54624865464709	3.68487001239796	0.0405925582805446	6.45343061927802	-19.1916135801051	29.5645631372398	-8.03120385813521	10.5636067877189	0.697848714355662	-0.655177858639341	-1.13430523202899	4.72427891125913	2.35559924096147	6.3537336926339	-7.48986815676106	11.6858877156036	27.705784658703	-23.6651681666384
-6.40654999253192	3.96077722156244	1.00954264993465	6.76249588570848	-18.0400218526317	31.5584092390162	-8.62283912628956	9.69230515821284	1.39826561183445	-0.106405654881598	-0.167190904332546	4.20159671162997	2.1544491340426	7.43096369230991	-6.63298838700887	11.6354289847282	29.2827864666418	-23.4279954144717
-6.93025093565934	4.7569853912673	2.33264014292867	7.08643472518649	-15.4398940007786	32.9559358513216	-9.00776263125062	9.25457345985285	0.570267615550395	1.90239637538669	1.38272963759634	3.39041569470489	3.10470388057444	7.86614116883254	-5.00008447085619	11.7920921064032	30.1839878224674	-21.7307729900105
-7.78780782801547	5.8217607174327	3.5103887570148	7.09264350911196	-12.6367459476683	33.7068707618167	-9.59127492743782	8.92784477593231	-0.877282018373378	3.80021193691186	3.04630953683716	2.66774569962092	3.80573846621332	7.830332546174	-3.29470286062312	12.0653265167318	31.3745394058082	-20.238033712863
-8.6057782575007	6.94771574983183	4.17022592666512	6.62538182316734	-10.7613889752759	33.7891190707629	-10.7105310875214	8.38660712207166	-1.85887068417948	4.22010485747137	4.46930001452929	2.30701105373099	3.34011700221594	7.42945550942811	-2.37976927524302	12.3140028995336	33.3935239052663	-20.0486339971259
-9.29832478345281	8.21810965024167	4.2161098605647	5.78195054327883	-9.96884735478894	33.353955576603	-12.4496500347943	7.54831687115054	-1.99283248811754	3.15699391457058	5.40775147172141	2.34593237178116	2.13198658344042	6.56285985408909	-2.60550939849154	12.3944380250737	36.2001011562602	-21.2616019127906
-10.0106871320887	9.86784726768361	3.78376653358473	4.83567859598392	-9.38981955056775	32.7041426500214	-14.626559240538	6.62123739740768	-1.71633863845996	1.78290266580723	5.78858535328639	2.62145588378646	1.52867264568605	5.09605332879377	-3.55436792907416	12.238643216903	39.3058518652992	-23.1974493294397
-10.7422494097923	11.8825637891642	3.0971675706118	4.04562122634561	-8.03256391496378	32.1471851576349	-16.8945267132288	5.91119025065773	-1.61776739177346	1.22080467451388	5.78227349040612	2.89779240237153	2.48047618060645	3.19045492395907	-4.46425780107593	11.9246114826396	42.0571127215997	-24.9787858723828
-11.1443622249576	13.8091746691795	2.34607900492969	3.48346527611517	-5.84451028971971	31.8901248019102	-18.8745313596739	5.56527206476801	-1.76610720652858	1.6340212813362	5.6339278403832	2.99251480919554	4.57133307851136	1.41532613555159	-4.92696441239644	11.6766604216903	43.8933846616143	-26.0074388057672
-10.7985777880605	15.0675516397783	1.635726358923	3.02322140652149	-3.9013221111072	32.0167140420732	-20.3002194687251	5.49351238598752	-1.71581275044133	2.4326236801642	5.35474041828739	2.85637026820103	6.28315273190204	0.413319830387486	-5.14514250554902	11.7573547976022	44.5051167449741	-26.0833387935702
-9.68073229699252	15.4859225818904	0.985489281194486	2.50386355523968	-3.45878096714987	32.462457242957	-21.1681637908927	5.50949494280531	-1.08133152247224	3.06871421260462	4.70250112127753	2.60465930889901	6.21498207864767	0.347886913811547	-5.51325675694459	12.2953951983611	43.8883291448738	-25.2506008032895
-8.26213248378686	15.4794985201566	0.344991109154954	1.89802677486659	-4.72504009177092	33.0215423619273	-21.8162946822439	5.49561085427821	-0.0108046970295447	3.45738264444766	3.54292755346445	2.4708784184121	4.19051968148613	0.668445943172071	-6.06702248998491	13.1838753137144	42.2858500285158	-23.6213709952235
-7.09754868049249	15.6441946226697	-0.364026378331546	1.32476353860352	-6.52337192019937	33.5016817996051	-22.811360112641	5.42063807084651	0.930013953420485	3.7763273861819	2.15787456418945	2.64316719748606	1.38547563820229	0.485691620645944	-6.43873439278697	14.1551549777873	40.0213831229902	-21.3224175215873
-6.33688747260412	16.1766013950813	-1.17434416543182	0.928952290486911	-7.14959394223986	33.8909751333752	-24.6108960056905	5.26037845450174	1.28356286085266	4.12181679081306	1.12616100538326	3.06278138923611	-0.555672817717716	-0.752525097785254	-6.27586519822067	14.9749267599465	37.3158611193162	-18.5151357979388
-5.69797615527024	16.7182125611979	-2.01987305837718	0.768169579249854	-5.63496183194084	34.2360311815817	-27.1542284041952	4.97748776674148	1.04388694641561	4.43770681116741	0.89848520480057	3.38845396309232	-0.677507871051279	-2.89686324007928	-5.57662480337118	15.5753246330025	34.2122253232467	-15.3889170245391
-4.91783212192296	16.7542964800566	-2.7625342073639	0.792197742726176	-2.36229242083105	34.2882824559914	-29.6799785369095	4.59280976175347	0.516076178454443	4.65759840041736	1.45693219798732	3.23552111523373	0.769793303431745	-5.3218067344579	-4.62332070337101	16.0141554007512	30.6497163904327	-12.1258624403607
-4.15133701873731	16.137350235765	-3.28692830259326	0.900727512395154	1.37160534678606	33.3689129678628	-30.9896017875038	4.23717271410421	-0.038672154470816	4.81129190271281	2.30270701378046	2.52448566332429	2.78813894054591	-7.43852855775962	-3.68948868624125	16.3279675510889	26.60815066767	-8.89589969024414
-3.85893975105165	15.2433618297651	-3.587191842243	1.02015764479504	4.35204306178514	30.7057367493601	-30.0683355314676	4.09350660845635	-0.555745665794624	5.00496995382201	2.74979563965573	1.61836795201885	4.48959899465503	-8.98025528224426	-2.8723646552216	16.4459718373633	22.2062064561934	-5.88258345419507
-4.31701801917355	14.6688930217178	-3.77421619159683	1.14400615397859	6.11479605269266	25.9849321159582	-26.6765497780431	4.26810566299229	-1.02797704487745	5.31048877841395	2.3549801311508	1.08417309859343	5.50024991958227	-9.87609249256277	-2.18867331760331	16.2557999506342	17.6927174164756	-3.28037567795952
